Data from FLMS007011_12-19-37-184.txt Node
Date: Thu Apr 21 12:19:37 MDT 2016
User: lab_user
Spectrometer: FLMS00701
Autoset integration time: false
Trigger mode: 0
Integration Time (sec): 5.000000E-3
Scans to average: 10
Electric dark correction enabled: true
Nonlinearity correction enabled: true
Boxcar width: 0
XAxis mode: Wavelengths
Stop averaging: false
Number of Pixels in Spectrum: 2048
>>>>>Begin Spectral Data<<<<<
178.41	7.36
178.791	7.36
179.172	7.36
179.553	-26.92
179.934	-53.51
180.316	-65.8
180.697	-62.09
181.078	-53.51
181.459	-74.95
181.84	-30.92
182.221	-31.78
182.602	-18.06
182.983	6.79
183.364	36.78
183.744	39.07
184.125	78.46
184.506	105.28
184.887	128.66
185.268	137.79
185.648	158.6
186.029	188.24
186.41	209.6
186.791	228.97
187.171	288.75
187.552	333.97
187.932	345.91
188.313	380.3
188.694	398.2
189.074	392.8
189.455	432.85
189.835	433.42
190.216	431.43
190.596	422.06
190.977	446.19
191.357	473.72
191.737	473.16
192.118	523.65
192.498	520.53
192.878	508.9
193.258	538.96
193.639	548.6
194.019	552.29
194.399	554.55
194.779	513.44
195.159	531.31
195.54	533.01
195.92	527.9
196.3	525.07
196.68	529.89
197.06	534.99
197.44	498.41
197.82	523.37
198.2	553.14
198.58	545.2
198.959	568.44
199.339	542.08
199.719	544.92
200.099	547.47
200.479	533.57
200.858	553.42
201.238	529.89
201.618	532.16
201.998	548.88
202.377	499.54
202.757	520.53
203.136	521.38
203.516	519.11
203.896	528.19
204.275	505.78
204.655	517.41
205.034	506.92
205.414	532.44
205.793	562.77
206.172	554.55
206.552	538.96
206.931	544.35
207.31	561.36
207.69	565.32
208.069	536.98
208.448	544.07
208.827	541.8
209.207	583.74
209.586	565.61
209.965	558.52
210.344	571.84
210.723	555.69
211.102	562.49
211.481	585.16
211.86	561.92
212.239	588.56
212.618	559.66
212.997	572.41
213.376	589.13
213.755	598.48
214.134	593.38
214.513	586.58
214.891	585.16
215.27	612.92
215.649	646.62
216.028	637.84
216.406	627.36
216.785	632.18
217.164	659.35
217.542	659.35
217.921	684.54
218.3	682.56
218.678	687.93
219.057	673.5
219.435	687.93
219.814	700.66
220.192	723.57
220.57	719.05
220.949	756.37
221.327	736.3
221.705	773.89
222.084	800.73
222.462	786.32
222.84	813.16
223.218	842.53
223.597	843.66
223.975	892.48
224.353	876.68
224.731	900.09
225.109	931.68
225.487	934.22
225.865	957.05
226.243	986.93
226.621	1001.86
226.999	1060.14
227.377	1074.21
227.755	1084.34
228.133	1101.79
228.511	1140.6
228.889	1181.91
229.266	1231.63
229.644	1264.76
230.022	1287.49
230.4	1314.14
230.777	1349.47
231.155	1396.56
231.533	1425.97
231.91	1476.08
232.288	1493.99
232.665	1530.36
233.043	1573.13
233.42	1572.85
233.798	1637.95
234.175	1706.06
234.553	1729.49
234.93	1755.7
235.307	1804.76
235.685	1827.04
236.062	1852.94
236.439	1901.66
236.816	1957.85
237.194	2007.6
237.571	2061.21
237.948	2088.42
238.325	2158.34
238.702	2188.29
239.079	2230.97
239.456	2244.54
239.833	2279.99
240.21	2340.05
240.587	2374.35
240.964	2469.15
241.341	2458.65
241.718	2552.79
242.095	2532.09
242.472	2619.53
242.849	2678.23
243.225	2688.97
243.602	2748.44
243.979	2768.25
244.356	2825.18
244.732	2869.44
245.109	2896.91
245.486	2953.48
245.862	3017.13
246.239	3001.77
246.615	3064.57
246.992	3086.22
247.368	3107.59
247.745	3155.52
248.121	3242.54
248.497	3225.31
248.874	3296.68
249.25	3342.31
249.626	3393.92
250.003	3405.11
250.379	3495.68
250.755	3507.4
251.131	3563.54
251.507	3552.64
251.884	3613.92
252.26	3650.67
252.636	3715.41
253.012	3734.17
253.388	3799.93
253.764	3773.03
254.14	3789.61
254.516	3868.35
254.892	3906.07
255.268	3870.53
255.643	3854.78
256.019	3975.22
256.395	3997.72
256.771	4035.38
257.147	4062.46
257.522	4066.52
257.898	4105.51
258.274	4101.17
258.649	4179.9
259.025	4201.53
259.4	4194.23
259.776	4245.04
260.151	4258.55
260.527	4242.07
260.902	4267.47
261.278	4323.64
261.653	4321.75
262.028	4344.69
262.404	4367.9
262.779	4362.5
263.154	4412.67
263.53	4464.44
263.905	4439.1
264.28	4449.61
264.655	4466.32
265.03	4444.49
265.405	4467.13
265.781	4504.85
266.156	4488.96
266.531	4513.74
266.906	4511.59
267.281	4510.51
267.655	4487.07
268.03	4521.28
268.405	4521.28
268.78	4512.66
269.155	4599.89
269.53	4471.17
269.904	4542.83
270.279	4531.25
270.654	4528.56
271.029	4558.44
271.403	4536.1
271.778	4551.71
272.152	4531.79
272.527	4514.82
272.901	4561.14
273.276	4616.84
273.65	4617.65
274.025	4590.21
274.399	4532.06
274.774	4611.19
275.148	4591.82
275.522	4567.87
275.897	4590.21
276.271	4588.32
276.645	4614.15
277.019	4567.6
277.393	4608.77
277.768	4589.4
278.142	4584.02
278.516	4575.13
278.89	4560.6
279.264	4586.71
279.638	4589.4
280.012	4553.87
280.386	4530.98
280.76	4539.6
281.133	4578.9
281.507	4566.25
281.881	4545.79
282.255	4549.56
282.629	4520.75
283.002	4511.86
283.376	4487.61
283.75	4470.63
284.123	4513.47
284.497	4499.2
284.87	4501.62
285.244	4484.92
285.618	4478.45
285.991	4393.8
286.364	4427.51
286.738	4347.66
287.111	4437.75
287.485	4341.99
287.858	4359.53
288.231	4338.48
288.605	4313.65
288.978	4334.7
289.351	4317.97
289.724	4265.58
290.097	4260.17
290.47	4241.26
290.843	4186.12
291.217	4168.54
291.59	4117.68
291.963	4166.92
292.336	4064.63
292.708	4096.3
293.081	4065.44
293.454	4048.92
293.827	4029.69
294.2	3946.49
294.573	3950.55
294.945	3946.21
295.318	3921.26
295.691	3875.14
296.064	3866.73
296.436	3849.35
296.809	3863.2
297.181	3798.84
297.554	3830.89
297.926	3790.15
298.299	3766.24
298.671	3796.13
299.044	3773.85
299.416	3705.62
299.788	3693.11
300.161	3734.44
300.533	3700.45
300.905	3681.68
301.278	3701.81
301.65	3708.07
302.022	3696.64
302.394	3717.04
302.766	3690.39
303.138	3671.07
303.51	3682.23
303.882	3711.87
304.254	3759.45
304.626	3736.61
304.998	3783.63
305.37	3746.67
305.742	3740.69
306.114	3818.13
306.485	3823.83
306.857	3818.94
307.229	3838.49
307.601	3806.18
307.972	3836.59
308.344	3839.31
308.716	3807.81
309.087	3860.76
309.459	3868.35
309.83	3836.32
310.202	3817.59
310.573	3869.98
310.945	3929.4
311.316	3854.24
311.687	3915.57
312.059	3912.58
312.43	4006.93
312.801	4054.88
313.172	4190.72
313.544	4241.8
313.915	4392.99
314.286	4523.98
314.657	4616.84
315.028	4777.58
315.399	4903.98
315.77	5071.69
316.141	5184.57
316.512	5351.76
316.883	5464.02
317.254	5544.74
317.625	5609.16
317.996	5812.23
318.366	5868.5
318.737	5917.58
319.108	6023.34
319.478	6023.87
319.849	6067.05
320.22	6121.58
320.59	6080.55
320.961	6089.29
321.331	6044.01
321.702	6025.2
322.072	5986.25
322.443	5917.84
322.813	6009.57
323.184	5929.51
323.554	5852.84
323.924	5844.62
324.295	5826.57
324.665	5865.05
325.035	5941.18
325.405	5851.78
325.775	5948.34
326.145	5881.24
326.515	5840.1
326.886	5834.53
327.256	5850.19
327.626	5745.03
327.995	5667.94
328.365	5641.61
328.735	5683.37
329.105	5661.03
329.475	5801.08
329.845	5875.93
330.215	5941.18
330.584	6011.42
330.954	6030.23
331.324	6133.76
331.693	6169.47
332.063	6087.17
332.432	6044.27
332.802	5937.73
333.171	5805.59
333.541	5652.78
333.91	5646.67
334.28	5425.11
334.649	5224.39
335.018	5103.26
335.388	5036.88
335.757	4901.56
336.126	4696.17
336.495	4705.85
336.865	4631.37
337.234	4482.76
337.603	4427.24
337.972	4328.77
338.341	4294.75
338.71	4226.13
339.079	4189.63
339.448	4156.37
339.817	4088.72
340.186	4093.05
340.554	4169.62
340.923	4104.42
341.292	4134.46
341.661	4082.77
342.029	4166.92
342.398	4163.67
342.767	4198.02
343.135	4367.63
343.504	4363.31
343.872	4465.51
344.241	4495.69
344.609	4598.01
344.978	4698.59
345.346	4847.64
345.715	4914.16
346.083	5041.7
346.451	5086.14
346.82	5228.4
347.188	5340.55
347.556	5447.5
347.924	5548.73
348.292	5623.52
348.66	5753.8
349.028	5910.68
349.396	5971.93
349.764	6088.49
350.132	6219.19
350.5	6340.47
350.868	6444.46
351.236	6575.48
351.604	6688.17
351.972	6776.55
352.34	6837.52
352.707	7038.6
353.075	7144.76
353.443	7190.07
353.81	7288.49
354.178	7451.1
354.545	7566.77
354.913	7695.08
355.28	7824.28
355.648	7915.63
356.015	7994.68
356.383	8141.46
356.75	8216.46
357.117	8318.38
357.485	8420.46
357.852	8440.14
358.219	8539.8
358.586	8666.51
358.954	8672.19
359.321	8808.83
359.688	8816.83
360.055	8810.64
360.422	8941.97
360.789	8988.37
361.156	8971.1
361.523	9105.35
361.89	9061.56
362.256	9234.82
362.623	9229.68
362.99	9260.55
363.357	9319.69
363.724	9329.46
364.09	9340.26
364.457	9401.68
364.823	9578.33
365.19	9609.38
365.557	9677.34
365.923	9706.82
366.29	9583.21
366.656	9754.49
367.022	9860.03
367.389	9817
367.755	9790.11
368.121	9786.01
368.488	9856.19
368.854	9858.49
369.22	9862.33
369.586	9774.74
369.952	9770.64
370.318	9678.37
370.684	9773.46
371.051	9775.5
371.416	9751.16
371.782	9799.33
372.148	9834.68
372.514	9741.17
372.88	9746.81
373.246	9734.25
373.612	9890.49
373.977	9864.12
374.343	9997.97
374.709	10020.73
375.074	9988.25
375.44	10002.57
375.806	9964.46
376.171	9982.88
376.537	10053.97
376.902	9995.67
377.268	10176.91
377.633	10131.43
377.998	10236.93
378.364	10386.74
378.729	10430.35
379.094	10362.5
379.459	10157.49
379.825	10129.64
380.19	10195.55
380.555	10016.64
380.92	9892.8
381.285	9925.82
381.65	9936.82
382.015	9938.1
382.38	10009.73
382.745	9871.29
383.11	9890.24
383.474	9900.22
383.839	9870.52
384.204	9905.08
384.569	9819.57
384.933	9791.64
385.298	9757.57
385.663	9825.2
386.027	9800.35
386.392	9914.04
386.756	9982.36
387.121	10097.69
387.485	10166.18
387.849	10304.07
388.214	10130.4
388.578	10126.57
388.942	9894.59
389.307	9994.64
389.671	9937.59
390.035	10021.24
390.399	10057.81
390.763	10145.74
391.127	10226.71
391.492	10526.97
391.856	10750.29
392.219	10954.48
392.583	10931.35
392.947	10691.5
393.311	10443.87
393.675	10330.61
394.039	10251.48
394.403	10230.8
394.766	10128.87
395.13	10175.37
395.494	10160.55
395.857	10172.05
396.221	10304.07
396.584	10487.46
396.948	10684.88
397.311	10993.35
397.675	11168.03
398.038	11291.82
398.401	11101.53
398.765	10774.97
399.128	10556.53
399.491	10370.41
399.854	10264.5
400.218	10261.44
400.581	10214.96
400.944	10234.88
401.307	9981.08
401.67	10022.27
402.033	9936.56
402.396	9948.08
402.759	9928.89
403.122	10008.2
403.485	10018.69
403.847	10178.69
404.21	10327.55
404.573	10451.77
404.936	10491.54
405.298	10435.45
405.661	10207.56
406.023	9992.08
406.386	9792.16
406.749	9764.23
407.111	9731.94
407.473	9893.82
407.836	10083.63
408.198	10201.17
408.561	10223.14
408.923	10244.84
409.285	10137.3
409.647	10033.77
410.009	9927.61
410.372	9969.06
410.734	9792.41
411.096	9842.36
411.458	9898.17
411.82	9923
412.182	10103.82
412.544	10150.85
412.906	10127.34
413.267	10195.55
413.629	10078.01
413.991	9878.21
414.353	9951.15
414.714	9759.11
415.076	9718.87
415.438	9742.19
415.799	9767.56
416.161	9729.64
416.522	9650.67
416.884	9540.1
417.245	9590.65
417.607	9525.21
417.968	9601.17
418.329	9608.61
418.691	9632.98
419.052	9648.36
419.413	9825.71
419.774	9765
420.135	10195.81
420.497	10468.85
420.858	10880
421.219	10888.65
421.58	10822.03
421.941	10464.77
422.302	10178.44
422.662	10101.27
423.023	9910.46
423.384	9867.96
423.745	9922.49
424.106	9904.32
424.466	10080.05
424.827	9923.51
425.187	9746.04
425.548	9459.48
425.909	9289.61
426.269	9348.23
426.63	9450.49
426.99	9624.51
427.35	9613.48
427.711	9669.91
428.071	9759.62
428.431	9992.08
428.792	10723.82
429.152	11403.85
429.512	11562.9
429.872	11587.2
430.232	11322.24
430.592	10938.97
430.952	10306.11
431.312	9829.55
431.672	9447.67
432.032	9324.06
432.392	9461.53
432.752	10182.01
433.111	10809.06
433.471	10845.17
433.831	10320.15
434.19	10174.86
434.55	9995.15
434.91	9800.87
435.269	10038.63
435.629	9967.01
435.988	10128.61
436.348	9992.85
436.707	9737.32
437.066	9618.87
437.426	9786.01
437.785	9781.4
438.144	9821.87
438.503	9763.46
438.862	9664.26
439.222	9504.67
439.581	9367.76
439.94	9473.6
440.299	9997.71
440.658	10587.35
441.017	10785.65
441.376	10803.71
441.734	10557.8
442.093	10380.11
442.452	10445.65
442.811	10567.99
443.169	10651.53
443.528	10338.78
443.887	10246.63
444.245	10203.22
444.604	10074.43
444.962	9916.86
445.321	9858.23
445.679	9861.82
446.038	10026.61
446.396	9894.59
446.754	9576.03
447.112	9531.88
447.471	9435.59
447.829	9284.72
448.187	9331.78
448.545	9277.01
448.903	9283.95
449.261	9346.69
449.619	9146.03
449.977	9051.77
450.335	8943
450.693	8851.68
451.051	8833.87
451.409	8820.45
451.766	8777.85
452.124	8564.37
452.482	8409.33
452.839	8318.38
453.197	8172.35
453.555	8093.94
453.912	8052.89
454.27	8161.7
454.627	8436.78
454.984	8461.64
455.342	8357.77
455.699	8172.09
456.056	8158.33
456.414	8294.79
456.771	8481.83
457.128	8657.46
457.485	8699.07
457.842	8655.91
458.199	8684.86
458.556	8834.64
458.913	8741.95
459.27	8888.06
459.627	8676.07
459.984	8834.39
460.341	8750.48
460.697	8669.87
461.054	8353.37
461.411	7971.02
461.767	7630.16
462.124	7555.02
462.481	7822.2
462.837	7963.22
463.194	8333.93
463.55	8213.35
463.907	8628.51
464.263	8946.35
464.619	9219.39
464.976	9511.86
465.332	9576.28
465.688	9283.69
466.044	8805.73
466.4	8412.43
466.756	8213.87
467.112	8107.96
467.468	8092.64
467.824	8083.29
468.18	7892.73
468.536	7793.56
468.892	7518.22
469.248	7525.01
469.604	7385.25
469.959	7367.74
470.315	7372.44
470.671	7358.06
471.026	7484.53
471.382	7536.23
471.737	7670.58
472.093	7883.89
472.448	8080.69
472.804	8312.93
473.159	8463.19
473.514	8583.51
473.87	8542.38
474.225	9022.14
474.58	9360.05
474.935	9568.84
475.29	9394.23
475.645	9201.37
476	9140.88
476.355	9102.26
476.71	8976
477.065	9347.46
477.42	9602.2
477.775	9746.04
478.13	9680.42
478.485	9701.95
478.839	9855.93
479.194	10261.95
479.549	10566.46
479.903	10741.89
480.258	10578.69
480.612	10683.61
480.967	11038.82
481.321	11262.66
481.675	10999.7
482.03	10635.49
482.384	10388.78
482.738	10478.03
483.093	10589.64
483.447	10998.94
483.801	11447.43
484.155	11973.49
484.509	13378.68
484.863	26146.3
485.217	37003.39
485.571	41303.11
485.925	31680.55
486.279	22873.7
486.632	17806.24
486.986	14384.49
487.34	12550.32
487.694	11490.99
488.047	11056.59
488.401	10965.66
488.754	10803.46
489.108	10612.31
489.461	10511.93
489.815	10209.6
490.168	10336.73
490.522	10387.76
490.875	10402.55
491.228	10318.1
491.581	10499.19
491.935	10402.81
492.288	10318.36
492.641	10360.72
492.994	10319.38
493.347	10538.43
493.7	10692.01
494.053	10653.82
494.406	10486.44
494.759	10089
495.111	10216.24
495.464	11054.05
495.817	11692.46
496.169	11539.1
496.522	10822.03
496.875	10058.58
497.227	9708.36
497.58	9475.66
497.932	9758.59
498.285	9765.26
498.637	10161.07
498.989	10490.52
499.342	10577.67
499.694	10262.97
500.046	9995.67
500.398	10142.92
500.751	10484.91
501.103	10514.99
501.455	10584.04
501.807	10601.36
502.159	10600.85
502.511	10547.35
502.862	10505.56
503.214	10365.57
503.566	10097.95
503.918	9687.34
504.27	9685.29
504.621	9662.47
504.973	9611.17
505.324	9575.51
505.676	9809.58
506.027	9978.01
506.379	9546.51
506.73	9140.37
507.082	9034.77
507.433	9247.69
507.784	9579.87
508.136	9349.26
508.487	9280.35
508.838	9005.39
509.189	8998.94
509.54	9114.36
509.891	9040.18
510.242	9028.07
510.593	8883.16
510.944	8842.13
511.295	8572.91
511.646	8376.69
511.996	8353.11
512.347	8418.13
512.698	8465.26
513.049	8371.24
513.399	8327.19
513.75	8286.75
514.1	8138.08
514.451	7875.82
514.801	7775.33
515.152	7795.9
515.502	8053.15
515.852	8208.42
516.202	8250.7
516.553	8222.95
516.903	7957.76
517.253	7715.15
517.603	7582.68
517.953	7652.06
518.303	7853.18
518.653	8076.53
519.003	8165.08
519.353	7693.25
519.703	7344.99
520.052	7148.95
520.402	7167.29
520.752	7326.42
521.102	7182.74
521.451	7097.86
521.801	7103.62
522.15	7156.81
522.5	7268.87
522.849	7313.87
523.199	7506.21
523.548	7514.04
523.897	7510.39
524.246	7360.94
524.596	7105.19
524.945	7100.74
525.294	7085.8
525.643	7090.25
525.992	7111.75
526.341	7204.21
526.69	7159.43
527.039	7050.93
527.388	6906.87
527.737	7181.69
528.086	7616.07
528.434	8070.04
528.783	7974.4
529.132	7666.67
529.48	7426.54
529.829	7316.22
530.177	7134.54
530.526	7063.78
530.874	7131.66
531.223	7140.05
531.571	7091.83
531.919	7113.84
532.268	7404.07
532.616	7905.48
532.964	8255.37
533.312	8387.05
533.66	8296.08
534.008	8329.26
534.356	8408.55
534.704	8304.9
535.052	8107.7
535.4	7881.81
535.748	7384.73
536.095	7137.95
536.443	6899.26
536.791	7096.55
537.139	7386.04
537.486	7754.49
537.834	7932.01
538.181	8063.55
538.529	8067.96
538.876	8032.11
539.223	7941.12
539.571	7643.98
539.918	7525.79
540.265	7692.47
540.613	7987.92
540.96	7938.26
541.307	7863.33
541.654	7849.54
542.001	7816.21
542.348	7828.45
542.695	7748.24
543.042	7918.23
543.388	8106.92
543.735	8260.82
544.082	8337.3
544.429	8270.41
544.775	8041.72
545.122	7664.84
545.469	7307.59
545.815	7205.52
546.162	7302.62
546.508	7512.74
546.854	7979.6
547.201	8619.46
547.547	8933.2
547.893	8797.21
548.24	8168.71
548.586	7461.55
548.932	7118.04
549.278	6886.12
549.624	7011.33
549.97	6928.14
550.316	6735
550.662	6543.07
551.008	6871.15
551.353	7627.29
551.699	8163.26
552.045	8233.32
552.391	7740.42
552.736	7593.12
553.082	7525.79
553.427	7444.57
553.773	7017.1
554.118	6741.83
554.464	6981.94
554.809	7413.74
555.154	7938.52
555.5	7971.54
555.845	7627.81
556.19	7218.35
556.535	6786.01
556.88	6854.87
557.225	6943.89
557.57	6841.47
557.915	6541.75
558.26	6268.36
558.605	6265.71
558.95	6444.72
559.295	6889.28
559.639	7510.65
559.984	8092.64
560.329	8431.6
560.673	8409.33
561.018	8187.14
561.362	7776.37
561.707	7349.43
562.051	7316.22
562.395	7445.88
562.74	7722.18
563.084	7974.4
563.428	8267.56
563.772	8339.11
564.117	8411.92
564.461	8441.44
564.805	8343.52
565.149	8376.17
565.493	8468.63
565.836	8633.94
566.18	8877.74
566.524	9681.96
566.868	10575.63
567.212	11137.33
567.555	11366.35
567.899	12141.59
568.242	13230.99
568.586	14852.42
568.929	16741.36
569.273	19055.81
569.616	19956.09
569.96	20495.06
570.303	21382.78
570.646	22325.14
570.989	23414.56
571.333	23601.79
571.676	22637.85
572.019	19793.25
572.362	19962.49
572.705	22609.87
573.048	25691.24
573.391	27704.77
573.733	28990.93
574.076	29735.48
574.419	29294.31
574.762	26579.82
575.104	23902.86
575.447	22471.43
575.789	24353.12
576.132	27731.06
576.474	28873.43
576.817	32820.87
577.159	37378.4
577.501	39463.22
577.844	36233.97
578.186	29410.61
578.528	25191.34
578.87	24355.57
579.212	24884.6
579.554	27016.13
579.896	27087.58
580.238	28976.18
580.58	36917.57
580.922	43522.3
581.264	48041.04
581.606	43460.23
581.947	38186.54
582.289	31568.25
582.631	25241.16
582.972	21411.27
583.314	20493.59
583.655	21189.23
583.997	24473.35
584.338	28780.27
584.679	32297.16
585.021	32879.3
585.362	29044.52
585.703	25452.45
586.044	23319.6
586.385	24955.03
586.726	27529.15
587.067	27477.33
587.408	24918.71
587.749	22727.67
588.09	20743.54
588.431	18986.6
588.772	16986.57
589.113	16761.16
589.453	17119.88
589.794	16685.91
590.134	15299.36
590.475	14279.41
590.815	14069.12
591.156	14136.83
591.496	14413.68
591.837	18060.2
592.177	22278.99
592.517	26043.45
592.857	25129.75
593.198	22702.15
593.538	19276.19
593.878	17003.15
594.218	16827.49
594.558	18319.2
594.898	18251.63
595.237	16893.31
595.577	14869.35
595.917	13328.54
596.257	13474.66
596.596	14040.89
596.936	15074.74
597.276	14366.02
597.615	14205.26
597.955	16742.35
598.294	19902.96
