Data from FLMS007011_11-15-37-421.txt Node
Date: Thu Apr 21 11:15:37 MDT 2016
User: lab_user
Spectrometer: FLMS00701
Autoset integration time: false
Trigger mode: 0
Integration Time (sec): 5.000000E-3
Scans to average: 10
Electric dark correction enabled: true
Nonlinearity correction enabled: true
Boxcar width: 0
XAxis mode: Wavelengths
Stop averaging: false
Number of Pixels in Spectrum: 2048
>>>>>Begin Spectral Data<<<<<
178.41	33.69
178.791	33.69
179.172	33.69
179.553	-50.89
179.934	-60.89
180.316	-61.75
180.697	-39.45
181.078	-58.04
181.459	-59.46
181.84	-59.46
182.221	-29.45
182.602	-22.59
182.983	-6.3
183.364	18.55
183.744	61.67
184.125	69.66
184.506	96.77
184.887	100.19
185.268	124.15
185.648	172.33
186.029	186.29
186.41	183.16
186.791	209.37
187.171	244.68
187.552	294.2
187.932	347.66
188.313	363.01
188.694	385.75
189.074	385.75
189.455	395.97
189.835	423.81
190.216	410.18
190.596	442.55
190.977	438.86
191.357	476.61
191.737	484.55
192.118	471.22
192.498	480.01
192.878	469.8
193.258	506.96
193.639	509.23
194.019	518.31
194.399	519.73
194.779	518.88
195.159	500.44
195.54	518.31
195.92	523.13
196.3	532.2
196.68	522.56
197.06	507.25
197.44	571.32
197.82	516.89
198.2	511.22
198.58	507.82
198.959	536.74
199.339	523.98
199.719	535.04
200.099	562.82
200.479	498.17
200.858	539.01
201.238	527.67
201.618	529.37
201.998	533.62
202.377	500.72
202.757	520.01
203.136	534.47
203.516	534.19
203.896	555.73
204.275	535.89
204.655	531.07
205.034	540.43
205.414	524.26
205.793	553.75
206.172	559.42
206.552	514.62
206.931	573.02
207.31	563.95
207.69	564.8
208.069	561.69
208.448	560.55
208.827	573.31
209.207	567.35
209.586	613.82
209.965	595.69
210.344	614.67
210.723	590.87
211.102	617.5
211.481	592.57
211.86	620.61
212.239	638.17
212.618	649.21
212.997	652.04
213.376	639.3
213.755	663.93
214.134	677.23
214.513	700.71
214.891	691.38
215.27	707.22
215.649	730.41
216.028	710.33
216.406	727.01
216.785	705.52
217.164	747.37
217.542	758.68
217.921	764.33
218.3	805.86
218.678	773.66
219.057	815.47
219.435	823.94
219.814	851.89
220.192	851.04
220.57	854.99
220.949	895.91
221.327	897.32
221.705	937.65
222.084	908.32
222.462	931.16
222.84	991.48
223.218	1015.14
223.597	1034.01
223.975	1051.18
224.353	1050.62
224.731	1108.87
225.109	1136.43
225.487	1145.7
225.865	1176.34
226.243	1210.06
226.621	1219.89
226.999	1250.77
227.377	1274.91
227.755	1344.76
228.133	1328.21
228.511	1374.47
228.889	1412.01
229.266	1455.7
229.644	1448.98
230.022	1474.45
230.4	1558.09
230.777	1551.38
231.155	1648.89
231.533	1651.12
231.91	1676.24
232.288	1712.24
232.665	1771.92
233.043	1803.13
233.42	1816.23
233.798	1836.56
234.175	1895.58
234.553	1945.66
234.93	1964.57
235.307	2031.54
235.685	2095.41
236.062	2072.65
236.439	2138.97
236.816	2158.11
237.194	2208.84
237.571	2268.96
237.948	2315.19
238.325	2328.2
238.702	2341.2
239.079	2365.55
239.456	2410.34
239.833	2450.96
240.21	2506.19
240.587	2536.56
240.964	2580.15
241.341	2635.84
241.718	2700.3
242.095	2701.13
242.472	2756.19
242.849	2789.48
243.225	2822.75
243.602	2848.87
243.979	2891.74
244.356	2940.62
244.732	2956.54
245.109	2990.84
245.486	2988.37
245.862	3056.39
246.239	3136.4
246.615	3157.76
246.992	3174.73
247.368	3258.72
247.745	3269.39
248.121	3344.81
248.497	3328.42
248.874	3410.34
249.25	3440.63
249.626	3497.36
250.003	3455.91
250.379	3583.74
250.755	3583.74
251.131	3672.75
251.507	3639.01
251.884	3698.59
252.26	3694.51
252.636	3814.37
253.012	3779.33
253.388	3857.27
253.764	3876
254.14	3888.48
254.516	3980.42
254.892	3963.88
255.268	4003.45
255.643	4006.44
256.019	4026.76
256.395	4059.8
256.771	4164.53
257.147	4189.14
257.522	4167.78
257.898	4200.22
258.274	4193.19
258.649	4200.76
259.025	4275.89
259.4	4266.97
259.776	4323.41
260.151	4331.24
260.527	4387.91
260.902	4360.12
261.278	4385.48
261.653	4421.08
262.028	4443.19
262.404	4435.91
262.779	4456.4
263.154	4522.14
263.53	4584.6
263.905	4535.06
264.28	4533.99
264.655	4537.22
265.03	4553.37
265.405	4579.22
265.781	4630.61
266.156	4613.12
266.531	4656.43
266.906	4627.65
267.281	4643.79
267.655	4538.56
268.03	4619.04
268.405	4669.87
268.78	4685.2
269.155	4725.51
269.53	4622.54
269.904	4665.57
270.279	4699.71
270.654	4732.77
271.029	4717.18
271.403	4717.18
271.778	4681.43
272.152	4666.38
272.527	4713.69
272.901	4733.57
273.276	4749.69
273.65	4765.27
274.025	4798.84
274.399	4749.69
274.774	4718.26
275.148	4782.73
275.522	4747.01
275.897	4729.81
276.271	4749.16
276.645	4794.01
277.019	4827.29
277.393	4817.9
277.768	4786.22
278.142	4750.5
278.516	4806.09
278.89	4794.81
279.264	4796.96
279.638	4807.97
280.012	4765
280.386	4742.98
280.76	4732.23
281.133	4780.31
281.507	4765.27
281.881	4735.72
282.255	4740.29
282.629	4740.02
283.002	4702.67
283.376	4707.24
283.75	4721.21
284.123	4740.29
284.497	4720.94
284.87	4711.27
285.244	4689.23
285.618	4676.06
285.991	4687.08
286.364	4657.77
286.738	4630.34
287.111	4646.48
287.485	4625.77
287.858	4565.49
288.231	4600.48
288.605	4608.01
288.978	4572.76
289.351	4512.71
289.724	4472.84
290.097	4464.21
290.47	4402.74
290.843	4454.78
291.217	4407.06
291.59	4391.41
291.963	4350.13
292.336	4322.6
292.708	4333.67
293.081	4265.08
293.454	4241.58
293.827	4236.98
294.2	4202.66
294.573	4185.08
294.945	4134.5
295.318	4150.47
295.691	4115.29
296.064	4099.6
296.436	4054.11
296.809	4109.61
297.181	4028.11
297.554	4022.42
297.926	3994.78
298.299	4033.53
298.671	3980.15
299.044	3942.46
299.416	3929.17
299.788	3897.71
300.161	3889.03
300.533	3888.21
300.905	3951.95
301.278	3911
301.65	3935.14
302.022	3871.66
302.394	3876.27
302.766	3902.86
303.138	3847.5
303.51	3873.01
303.882	3883.6
304.254	3859.44
304.626	3853.2
304.998	3850.21
305.37	3769.55
305.742	3790.47
306.114	3768.46
306.485	3751.61
306.857	3758.13
307.229	3743.18
307.601	3738.29
307.972	3724.97
308.344	3719.8
308.716	3729.59
309.087	3701.58
309.459	3729.59
309.83	3763.84
310.202	3788.57
310.573	3871.66
310.945	3929.99
311.316	3935.95
311.687	4063.59
312.059	4171.56
312.43	4262.11
312.801	4330.43
313.172	4498.7
313.544	4541.8
313.915	4735.45
314.286	4827.29
314.657	4916.09
315.028	4976.93
315.399	5120.97
315.77	5206.53
316.141	5271.45
316.512	5338.19
316.883	5398.48
317.254	5465.13
317.625	5454.47
317.996	5462.47
318.366	5486.98
318.737	5543.19
319.108	5482.19
319.478	5536.26
319.849	5608.4
320.22	5685.54
320.59	5770.31
320.961	5875.44
321.331	5980.19
321.702	6079.01
322.072	6251.22
322.443	6429.73
322.813	6695.05
323.184	6876.19
323.554	7064.08
323.924	7270.74
324.295	7300.57
324.665	7479.35
325.035	7683.39
325.405	7824.33
325.775	7849.84
326.145	7925.3
326.515	7893.04
326.886	7995.76
327.256	7955.46
327.626	7941.16
327.995	7909.95
328.365	7928.94
328.735	7925.82
329.105	7873.52
329.475	7940.38
329.845	7941.94
330.215	8073.72
330.584	8072.94
330.954	8204.31
331.324	8270.71
331.693	8292.5
332.063	8309.61
332.432	8262.16
332.802	8258.53
333.171	8180.95
333.541	7910.99
333.91	7837.6
334.28	7569.68
334.649	7405.94
335.018	7235.67
335.388	7070.37
335.757	6848.08
336.126	6655.31
336.495	6592.64
336.865	6378.27
337.234	6210.51
337.603	6043.26
337.972	5973.83
338.341	5887.38
338.71	5746.67
339.079	5518.42
339.448	5505.9
339.817	5416.08
340.186	5335.52
340.554	5233.25
340.923	5172.85
341.292	5105.18
341.661	5076.28
342.029	5006.67
342.398	4993
342.767	4877.74
343.135	4844.2
343.504	4847.15
343.872	4863.79
344.241	4797.76
344.609	4793.2
344.978	4712.08
345.346	4659.92
345.715	4643.25
346.083	4547.18
346.451	4524.83
346.82	4495.74
347.188	4544.76
347.556	4463.13
347.924	4454.78
348.292	4406.79
348.66	4442.92
349.028	4429.71
349.396	4410.02
349.764	4430.25
350.132	4467.45
350.5	4526.18
350.868	4524.56
351.236	4549.07
351.604	4645.94
351.972	4670.68
352.34	4711.27
352.707	4793.47
353.075	4854.66
353.443	4869.15
353.81	4950.94
354.178	4991.93
354.545	5138.89
354.913	5184.88
355.28	5239.13
355.648	5352.33
356.015	5467.8
356.383	5548.78
356.75	5582.06
357.117	5717.7
357.485	5762.61
357.852	5870.14
358.219	5958.46
358.586	6040.87
358.954	6066.03
359.321	6124.54
359.688	6201.78
360.055	6306.97
360.422	6364.02
360.789	6465.34
361.156	6524.4
361.523	6553.13
361.89	6617.14
362.256	6799.99
362.623	6705.58
362.99	6815.23
363.357	6856.75
363.724	6948.39
364.09	7022.12
364.457	7077.45
364.823	7096.59
365.19	7222.06
365.557	7248.5
365.923	7295.6
366.29	7378.5
366.656	7510.17
367.022	7568.11
367.389	7563.42
367.755	7586.64
368.121	7609.34
368.488	7739.42
368.854	7758.18
369.22	7746.72
369.586	7754.27
369.952	7791.52
370.318	7833.96
370.684	7940.64
371.051	7967.69
371.416	7899.8
371.782	8068.26
372.148	8098.4
372.514	8096.58
372.88	8132.41
373.246	8217.54
373.612	8310.9
373.977	8274.34
374.343	8426.72
374.709	8547.6
375.074	8463.23
375.44	8493
375.806	8543.98
376.171	8641.48
376.537	8613.3
376.902	8639.41
377.268	8805
377.633	8788.48
377.998	8890.94
378.364	9087.11
378.729	9071.91
379.094	9063.92
379.459	8956.19
379.825	8892.75
380.19	8947.94
380.555	8864.37
380.92	8794.16
381.285	8807.58
381.65	8893
382.015	8948.46
382.38	8899.45
382.745	8851.72
383.11	8804.49
383.474	8902.29
383.839	8845.01
384.204	8898.94
384.569	8851.98
384.933	8844.24
385.298	8797.26
385.663	8836.24
386.027	8894.55
386.392	8981.2
386.756	9082.98
387.121	9185.46
387.485	9309.2
387.849	9371.66
388.214	9272.16
388.578	9223.8
388.942	9099.73
389.307	9083.24
389.671	9116.98
390.035	9227.4
390.399	9264.96
390.763	9303.02
391.127	9460.29
391.492	9717.63
391.856	9912.04
392.219	10151.4
392.583	10129.17
392.947	9867.24
393.311	9682.51
393.675	9562.72
394.039	9515.5
394.403	9454.9
394.766	9528.33
395.13	9471.85
395.494	9442.83
395.857	9530.13
396.221	9568.88
396.584	9832.16
396.948	9985.99
397.311	10352.6
397.675	10415.6
398.038	10562.68
398.401	10246.93
398.765	10127.12
399.128	9939.17
399.491	9763.76
399.854	9699.43
400.218	9648.66
400.581	9620.45
400.944	9561.7
401.307	9454.13
401.67	9468
402.033	9417.65
402.396	9325.91
402.759	9422.79
403.122	9629.17
403.485	9654.05
403.847	9791.94
404.21	9854.69
404.573	10075.24
404.936	10093.39
405.298	9917.92
405.661	9748.39
406.023	9529.87
406.386	9457.21
406.749	9370.38
407.111	9389.39
407.473	9646.36
407.836	9773.5
408.198	9850.6
408.561	9899.5
408.923	9968.59
409.285	9827.55
409.647	9730.7
410.009	9653.54
410.372	9590.95
410.734	9509.59
411.096	9570.68
411.458	9582.48
411.82	9735.57
412.182	9869.54
412.544	9833.95
412.906	9903.85
413.267	9922.02
413.629	9734.04
413.991	9707.12
414.353	9657.13
414.714	9582.23
415.076	9506.26
415.438	9518.58
415.799	9621.22
416.161	9520.38
416.522	9460.81
416.884	9387.34
417.245	9412.52
417.607	9412.77
417.968	9379.11
418.329	9474.42
418.691	9502.41
419.052	9604.29
419.413	9680.72
419.774	9800.65
420.135	10053.25
420.497	10395.2
420.858	10827.67
421.219	10833.77
421.58	10632.98
421.941	10416.88
422.302	10049.67
422.662	9981.64
423.023	9834.46
423.384	9767.09
423.745	9878.76
424.106	9876.46
424.466	9986.5
424.827	9761.2
425.187	9550.15
425.548	9357.27
425.909	9189.32
426.269	9334.13
426.63	9431.78
426.99	9605.83
427.35	9578.89
427.711	9648.92
428.071	9793.48
428.431	10031.26
428.792	10747.53
429.152	11384.64
429.512	11578.64
429.872	11468.75
430.232	11289.33
430.592	10780.61
430.952	10122.01
431.312	9726.6
431.672	9282.97
432.032	9368.32
432.392	9564.78
432.752	10303.34
433.111	10765.6
433.471	10787.22
433.831	10143.99
434.19	9987.01
434.55	9996.99
434.91	9769.4
435.269	9931.74
435.629	9998.01
435.988	10059.39
436.348	9913.57
436.707	9729.93
437.066	9538.34
437.426	9722.25
437.785	9761.2
438.144	9831.65
438.503	9761.71
438.862	9545.53
439.222	9518.07
439.581	9384.25
439.94	9591.46
440.299	10158.81
440.658	10685.18
441.017	10831.73
441.376	10711.65
441.734	10510.7
442.093	10356.68
442.452	10530.58
442.811	10564.21
443.169	10638.08
443.528	10384.23
443.887	10289.05
444.245	10274.76
444.604	10027.93
444.962	9925.35
445.321	9844.71
445.679	9933.54
446.038	10022.05
446.396	9838.3
446.754	9594.54
447.112	9581.71
447.471	9423.56
447.829	9299.17
448.187	9346.73
448.545	9366.01
448.903	9329.25
449.261	9284.51
449.619	9172.59
449.977	9157.15
450.335	8863.33
450.693	8904.87
451.051	8853.79
451.409	8733.47
451.766	8827.2
452.124	8607.09
452.482	8402.63
452.839	8178.62
453.197	8145.65
453.555	8053.46
453.912	8130.59
454.27	8291.72
454.627	8546.57
454.984	8512.41
455.342	8387.61
455.699	8185.11
456.056	8169.27
456.414	8325.16
456.771	8598.3
457.128	8656.99
457.485	8814.04
457.842	8711.51
458.199	8734.25
458.556	8838.56
458.913	8870.56
459.27	8938.14
459.627	8788.48
459.984	8850.95
460.341	8912.35
460.697	8667.33
461.054	8315.05
461.411	7950.78
461.767	7757.4
462.124	7691.21
462.481	7862.33
462.837	8115.28
463.194	8425.69
463.55	8373.62
463.907	8729.34
464.263	9013.93
464.619	9352.64
464.976	9620.19
465.332	9746.08
465.688	9293.25
466.044	8756.98
466.4	8435.79
466.756	8217.8
467.112	8149.81
467.468	8203.27
467.824	8045.4
468.18	7926.86
468.536	7830.84
468.892	7610.12
469.248	7553.5
469.604	7380.59
469.959	7475.96
470.315	7451.41
470.671	7442
471.026	7551.93
471.382	7656.8
471.737	7827.19
472.093	7986.92
472.448	8255.67
472.804	8477.21
473.159	8650.01
473.514	8666.03
473.87	8728.31
474.225	9143.76
474.58	9565.03
474.935	9670.97
475.29	9466.71
475.645	9288.11
476	9257.76
476.355	9122.13
476.71	9132.17
477.065	9459.01
477.42	9756.33
477.775	9781.95
478.13	9746.85
478.485	9938.4
478.839	10076
479.194	10445.18
479.549	10743.21
479.903	10852.84
480.258	10638.33
480.612	10915.89
480.967	11298.2
481.321	11409.47
481.675	11057.91
482.03	10728.7
482.384	10602.17
482.738	10610.83
483.093	10766.87
483.447	11150.06
483.801	11764.32
484.155	12216.03
484.509	14612.75
484.863	29790.86
485.217	39459.05
485.571	41278.77
485.925	29018.01
486.279	21250.44
486.632	17085.3
486.986	14183.08
487.34	12387.43
487.694	11561.42
488.047	11147.01
488.401	11139.14
488.754	10932.16
489.108	10674.23
489.461	10524.21
489.815	10348.51
490.168	10429.12
490.522	10563.19
490.875	10587.65
491.228	10436
491.581	10493.88
491.935	10548.41
492.288	10457.17
492.641	10550.45
492.994	10496.68
493.347	10724.63
493.7	10801.72
494.053	10807.57
494.406	10474.76
494.759	10197.38
495.111	10441.1
495.464	11286.03
495.817	11831.3
496.169	11623.18
496.522	10832.24
496.875	10012.33
497.227	9709.17
497.58	9713.79
497.932	9857.25
498.285	10014.12
498.637	10403.11
498.989	10710.12
499.342	10638.08
499.694	10330.65
500.046	10017.19
500.398	10352.09
500.751	10672.45
501.103	10703.25
501.455	10720.3
501.807	10747.28
502.159	10744.73
502.511	10745.75
502.862	10679.07
503.214	10490.05
503.566	10126.36
503.918	9843.94
504.27	9854.44
504.621	9808.08
504.973	9661.74
505.324	9716.09
505.676	10044.04
506.027	10091.85
506.379	9588.64
506.73	9295.57
507.082	9260.59
507.433	9559.39
507.784	9719.43
508.136	9472.11
508.487	9373.2
508.838	9153.03
509.189	9096.38
509.54	9278.34
509.891	9171.56
510.242	9163.07
510.593	9055.42
510.944	8920.35
511.295	8765.76
511.646	8512.41
511.996	8487.82
512.347	8554.07
512.698	8670.69
513.049	8573.21
513.399	8464.01
513.75	8505.94
514.1	8220.14
514.451	7957.28
514.801	7895.12
515.152	8066.71
515.502	8217.54
515.852	8406.78
516.202	8406.26
516.553	8315.05
516.903	8032.67
517.253	7802.2
517.603	7757.66
517.953	7746.98
518.303	8050.6
518.653	8237.78
519.003	8202.49
519.353	7790.22
519.703	7393.92
520.052	7260.8
520.402	7306.59
520.752	7430.51
521.102	7310.77
521.451	7208.97
521.801	7255.57
522.15	7278.07
522.5	7461.33
522.849	7464.73
523.199	7573.07
523.548	7715.71
523.897	7658.37
524.246	7488.5
524.596	7269.44
524.945	7208.71
525.294	7171.26
525.643	7241.69
525.992	7303.71
526.341	7329.34
526.69	7249.02
527.039	7142.97
527.388	7062.25
527.737	7336.4
528.086	7868.84
528.434	8235.96
528.783	8011.88
529.132	7694.86
529.48	7540.45
529.829	7385.82
530.177	7261.85
530.526	7236.46
530.874	7331.43
531.223	7288.54
531.571	7272.58
531.919	7296.12
532.268	7608.81
532.616	8128.26
532.964	8461.16
533.312	8526.13
533.66	8463.75
534.008	8505.94
534.356	8499.21
534.704	8417.92
535.052	8251.52
535.4	7879.51
535.748	7545.41
536.095	7206.88
536.443	7047.56
536.791	7247.45
537.139	7567.07
537.486	7911.25
537.834	8127.48
538.181	8213.39
538.529	8192.37
538.876	8230.77
539.223	8028.77
539.571	7774.59
539.918	7696.17
540.265	7883.41
540.613	8136.05
540.96	8096.06
541.307	8016.82
541.654	7974.97
542.001	7996.02
542.348	7948.96
542.695	7905.53
543.042	8145.65
543.388	8270.2
543.735	8450.29
544.082	8424.91
544.429	8425.17
544.775	8158.63
545.122	7767.82
545.469	7450.36
545.815	7368.83
546.162	7517.22
546.508	7740.47
546.854	8159.93
547.201	8853.53
547.547	9142.47
547.893	8907.19
548.24	8280.57
548.586	7484.58
548.932	7229.92
549.278	7015.83
549.624	7236.2
549.97	7081.65
550.316	6802.88
550.662	6658.47
551.008	7111
551.353	7925.56
551.699	8420.25
552.045	8285.75
552.391	7876.12
552.736	7734.73
553.082	7660.19
553.427	7458.72
553.773	7112.05
554.118	6962.3
554.464	7187.5
554.809	7681.31
555.154	8148.25
555.5	8091.12
555.845	7639.59
556.19	7241.43
556.535	6930.28
556.88	7054.64
557.225	7079.81
557.57	6997.47
557.915	6676.1
558.26	6399.39
558.605	6456.64
558.95	6560.5
559.295	7101.57
559.639	7778.76
559.984	8421.54
560.329	8579.68
560.673	8629.07
561.018	8328.01
561.362	7925.04
561.707	7511.47
562.051	7535.23
562.395	7653.93
562.74	8006.94
563.084	8129.3
563.428	8488.86
563.772	8551.22
564.117	8632.17
564.461	8671.72
564.805	8583.3
565.149	8654.92
565.493	8580.2
565.836	8938.66
566.18	9073.45
566.524	10112.3
566.868	10910.3
567.212	11416.06
567.555	11672.51
567.899	12616.04
568.242	13702.82
568.586	15379.71
568.929	17399
569.273	19612.94
569.616	20377.85
569.96	20942.86
570.303	22103.26
570.646	22913.74
570.989	24111.71
571.333	24090.86
571.676	22918.41
572.019	20103.7
572.362	20825.17
572.705	23692.13
573.048	26596.8
573.391	28402.57
573.733	29650.91
574.076	30664.03
574.419	29591.64
574.762	26994.8
575.104	24103.13
575.447	23299.51
575.789	25625.75
576.132	28765.56
576.474	29778.8
576.817	34052.52
577.159	38674.77
577.501	40063.94
577.844	36203.61
578.186	29512.7
578.528	26189.54
578.87	25154.33
579.212	25936.23
579.554	27928.6
579.896	27912.39
580.238	30442.79
580.58	38733.24
580.922	45068.16
581.264	48824.09
581.606	43572.67
581.947	38641.08
582.289	31986.03
582.631	25737.42
582.972	22086.33
583.314	21540.25
583.655	22232.88
583.997	25877.57
584.338	29990.1
584.679	33213.65
585.021	33021.09
585.362	29460.32
585.703	25822.34
586.044	24491.06
586.385	26116.39
586.726	28548.29
587.067	27901.83
587.408	25473.1
587.749	23295.1
588.09	21240.36
588.431	19419.75
588.772	17555.38
589.113	17583.05
589.453	17683.32
589.794	16979.44
590.134	15637.13
590.475	14653.63
590.815	14659.11
591.156	14634.93
591.496	15107.13
591.837	19094.52
592.177	23289.7
592.517	26570.53
592.857	25408.81
593.198	22961.11
593.538	19411.38
593.878	17691.47
594.218	17820.84
594.558	19024.57
594.898	18745.95
595.237	17214.37
595.577	15239.72
595.917	13755.37
596.257	14120.88
596.596	14644.41
596.936	15453.03
597.276	14644.65
597.615	14864.41
597.955	17809.73
598.294	20714.83
598.633	21593.54
598.973	20667.15
599.312	20239.19
599.651	20155.83
