Data from FLMS007011_11-15-17-566.txt Node
Date: Thu Apr 21 11:15:17 MDT 2016
User: lab_user
Spectrometer: FLMS00701
Autoset integration time: false
Trigger mode: 0
Integration Time (sec): 5.000000E-3
Scans to average: 10
Electric dark correction enabled: true
Nonlinearity correction enabled: true
Boxcar width: 0
XAxis mode: Wavelengths
Stop averaging: false
Number of Pixels in Spectrum: 2048
>>>>>Begin Spectral Data<<<<<
178.41	26.77
178.791	26.77
179.172	26.77
179.553	-70.39
179.934	-54.67
180.316	-52.38
180.697	-96.71
181.078	-48.95
181.459	-59.53
181.84	-39.23
182.221	-26.37
182.602	-18.08
182.983	8.21
183.364	30.2
183.744	61.6
184.125	76.16
184.506	103.26
184.887	106.12
185.268	102.69
185.648	163.15
186.029	180.81
186.41	188.22
186.791	239.49
187.171	276.49
187.552	316.89
187.932	338.5
188.313	351.58
188.694	360.11
189.074	405
189.455	397.62
189.835	408.13
190.216	425.17
190.596	442.77
190.977	455.83
191.357	470.3
191.737	452.71
192.118	472.29
192.498	466.33
192.878	502.08
193.258	464.06
193.639	484.21
194.019	539.51
194.399	527.04
194.779	515.69
195.159	508.89
195.54	513.43
195.92	533.84
196.3	504.35
196.68	497.54
197.06	527.6
197.44	546.32
197.82	519.66
198.2	544.33
198.58	521.08
198.959	541.5
199.339	538.38
199.719	515.98
200.099	535.26
200.479	518.53
200.858	527.04
201.238	541.21
201.618	494.99
201.998	515.98
202.377	553.12
202.757	542.92
203.136	535.26
203.516	534.41
203.896	532.71
204.275	529.31
204.655	514.56
205.034	528.74
205.414	530.44
205.793	525.9
206.172	524.2
206.552	534.13
206.931	554.54
207.31	534.13
207.69	560.21
208.069	562.76
208.448	585.43
208.827	593.36
209.207	566.44
209.586	586.84
209.965	613.47
210.344	603.84
210.723	583.73
211.102	580.61
211.481	592.23
211.86	613.19
212.239	636.97
212.618	633.29
212.997	608.66
213.376	642.64
213.755	651.13
214.134	674.9
214.513	672.07
214.891	700.65
215.27	714.23
215.649	707.44
216.028	712.25
216.406	719.32
216.785	720.45
217.164	728.37
217.542	728.37
217.921	771.9
218.3	757.77
218.678	776.7
219.057	795.07
219.435	811.73
219.814	839.69
220.192	837.71
220.57	842.51
220.949	892.18
221.327	885.13
221.705	889.64
222.084	931.1
222.462	930.82
222.84	932.51
223.218	1001.56
223.597	995.93
223.975	1043.8
224.353	1060.13
224.731	1067.73
225.109	1092.49
225.487	1096.71
225.865	1160.54
226.243	1165.6
226.621	1153.23
226.999	1220.95
227.377	1212.8
227.755	1266.43
228.133	1318.05
228.511	1337.12
228.889	1357.87
229.266	1413.63
229.644	1411.39
230.022	1464.31
230.4	1501.53
230.777	1523.91
231.155	1552.99
231.533	1572
231.91	1616.43
232.288	1691.25
232.665	1662.5
233.043	1694.6
233.42	1760.98
233.798	1809.76
234.175	1864.34
234.553	1848.75
234.93	1918.61
235.307	1931.97
235.685	1978.4
236.062	2039.82
236.439	2037.32
236.816	2099.79
237.194	2120.6
237.571	2152.5
237.948	2169.14
238.325	2218.76
238.702	2259.21
239.079	2326.75
239.456	2343.08
239.833	2382.63
240.21	2359.68
240.587	2452.56
240.964	2488.74
241.341	2529.6
241.718	2573.74
242.095	2579.81
242.472	2641.84
242.849	2630.27
243.225	2750.9
243.602	2762.45
243.979	2759.98
244.356	2805.09
244.732	2840.01
245.109	2874.09
245.486	2954.28
245.862	2982.83
246.239	3035.22
246.615	2993.53
246.992	3054.14
247.368	3094.15
247.745	3152.77
248.121	3204.5
248.497	3235.96
248.874	3269.6
249.25	3285.45
249.626	3345.3
250.003	3371.51
250.379	3377.79
250.755	3404.82
251.131	3499.21
251.507	3489.39
251.884	3565.98
252.26	3570.61
252.636	3607.1
253.012	3686.84
253.388	3724.09
253.764	3712.67
254.14	3772.75
254.516	3801.82
254.892	3823
255.268	3824.9
255.643	3856.13
256.019	3898.46
256.395	3905.52
256.771	3951.35
257.147	4009.63
257.522	4015.86
257.898	4051.61
258.274	4060.55
258.649	4084.11
259.025	4124.16
259.4	4153.38
259.776	4152.03
260.151	4177.99
260.527	4228
260.902	4231.25
261.278	4276.1
261.653	4236.65
262.028	4271.23
262.404	4282.04
262.779	4329.56
263.154	4342.52
263.53	4373.82
263.905	4393.24
264.28	4381.37
264.655	4367.07
265.03	4385.42
265.405	4439.08
265.781	4393.51
266.156	4450.94
266.531	4433.15
266.906	4470.35
267.281	4521
267.655	4462
268.03	4492.18
268.405	4490.56
268.78	4504.84
269.155	4504.03
269.53	4508.34
269.904	4535.54
270.279	4521.54
270.654	4575.93
271.029	4501.07
271.403	4565.7
271.778	4567.85
272.152	4568.39
272.527	4540.93
272.901	4580.5
273.276	4593.96
273.65	4531.77
274.025	4563.54
274.399	4542.27
274.774	4599.07
275.148	4577.27
275.522	4539.85
275.897	4601.49
276.271	4578.89
276.645	4659.6
277.019	4650.99
277.393	4598
277.768	4634.58
278.142	4575.39
278.516	4571.89
278.89	4620.87
279.264	4592.07
279.638	4636.74
280.012	4621.67
280.386	4588.85
280.76	4618.98
281.133	4540.12
281.507	4565.43
281.881	4611.99
282.255	4589.65
282.629	4526.92
283.002	4536.08
283.376	4595.04
283.75	4521.81
284.123	4530.96
284.497	4554.39
284.87	4575.66
285.244	4557.08
285.618	4574.58
285.991	4515.88
286.364	4506.19
286.738	4475.47
287.111	4488.94
287.485	4469.27
287.858	4425.87
288.231	4464.15
288.605	4435.85
288.978	4423.45
289.351	4356.28
289.724	4341.17
290.097	4356.01
290.47	4251.24
290.843	4275.83
291.217	4297.16
291.59	4220.98
291.963	4200.7
292.336	4152.03
292.708	4198
293.081	4126.87
293.454	4148.24
293.827	4109.82
294.2	4078.69
294.573	4047.01
294.945	4027.78
295.318	4000.14
295.691	3980.36
296.064	3949.18
296.436	3942.13
296.809	3934
297.181	3899.55
297.554	3873.23
297.926	3886.52
298.299	3861.28
298.671	3858.3
299.044	3848.8
299.416	3837.39
299.788	3795.57
300.161	3835.22
300.533	3785.52
300.905	3821.92
301.278	3793.12
301.65	3812.41
302.022	3746.11
302.394	3762.96
302.766	3764.6
303.138	3714.31
303.51	3745.03
303.882	3687.92
304.254	3711.31
304.626	3716.21
304.998	3728.44
305.37	3644.66
305.742	3671.6
306.114	3650.11
306.485	3638.68
306.857	3652.83
307.229	3587.49
307.601	3592.12
307.972	3577.69
308.344	3557.26
308.716	3564.07
309.087	3617.45
309.459	3625.07
309.83	3653.92
310.202	3705.06
310.573	3724.64
310.945	3776.01
311.316	3821.37
311.687	3934.54
312.059	4059.74
312.43	4149.86
312.801	4191.78
313.172	4285.01
313.544	4408.61
313.915	4573.23
314.286	4670.62
314.657	4776.49
315.028	4817.57
315.399	4851.65
315.77	4965.62
316.141	5016.78
316.512	5083.45
316.883	5119.84
317.254	5179.47
317.625	5087.19
317.996	5199.25
318.366	5163.97
318.737	5211.55
319.108	5234.26
319.478	5288.48
319.849	5385.89
320.22	5486.39
320.59	5625.9
320.961	5726.41
321.331	5900.32
321.702	6022.53
322.072	6156.5
322.443	6395.63
322.813	6602.86
323.184	6811.23
323.554	6907.64
323.924	7071.63
324.295	7222.53
324.665	7324.58
325.035	7517.16
325.405	7572.49
325.775	7630.93
326.145	7694.28
326.515	7703.41
326.886	7738.58
327.256	7760.99
327.626	7677.86
327.995	7624.41
328.365	7564.92
328.735	7660.13
329.105	7692.2
329.475	7707.84
329.845	7666.91
330.215	7771.15
330.584	7847.18
330.954	7928.1
331.324	8040.93
331.693	7997.78
332.063	7970.49
332.432	8006.88
332.802	7903.65
333.171	7841.19
333.541	7589.97
333.91	7523.69
334.28	7373.21
334.649	7149.46
335.018	6821.22
335.388	6728.93
335.757	6622.61
336.126	6442.86
336.495	6347.85
336.865	6250.63
337.234	6046.38
337.603	5953.63
337.972	5836.37
338.341	5747.94
338.71	5638.94
339.079	5535.14
339.448	5445.62
339.817	5325.05
340.186	5332.53
340.554	5257.23
340.923	5180.01
341.292	5090.4
341.661	5066.32
342.029	5016.78
342.398	4936.94
342.767	4901.28
343.135	4923.53
343.504	4797.17
343.872	4790.99
344.241	4758.5
344.609	4740.5
344.978	4689.44
345.346	4630.28
345.715	4559.24
346.083	4510.23
346.451	4495.41
346.82	4420.48
347.188	4446.9
347.556	4431.53
347.924	4407.27
348.292	4319.84
348.66	4362.49
349.028	4353.04
349.396	4315.52
349.764	4373.82
350.132	4359.79
350.5	4406.46
350.868	4401.33
351.236	4429.92
351.604	4490.56
351.972	4533.12
352.34	4561.12
352.707	4652.07
353.075	4641.04
353.443	4734.86
353.81	4792.6
354.178	4845.75
354.545	4985.98
354.913	5057.75
355.28	5032.05
355.648	5192.57
356.015	5294.62
356.383	5292.49
356.75	5390.96
357.117	5515.43
357.485	5551.91
357.852	5623.78
358.219	5679.36
358.586	5708.07
358.954	5814.07
359.321	5899
359.688	5921.28
360.055	5963.97
360.422	6076.3
360.789	6132.68
361.156	6179.51
361.523	6220.5
361.89	6346
362.256	6428.09
362.623	6489.28
362.99	6563.34
363.357	6541.21
363.724	6608.91
364.09	6712.62
364.457	6739.45
364.823	6869.56
365.19	6813.6
365.557	7016.56
365.923	7003.7
366.29	7059.3
366.656	7208.91
367.022	7215.46
367.389	7253.41
367.755	7303.65
368.121	7345.5
368.488	7411.9
368.854	7462.84
369.22	7485.83
369.586	7460.49
369.952	7540.39
370.318	7484
370.684	7475.38
371.051	7743.01
371.416	7644.75
371.782	7697.67
372.148	7776.1
372.514	7770.37
372.88	7750.57
373.246	7841.45
373.612	8007.66
373.977	7980.63
374.343	8110.28
374.709	8185.05
375.074	8182.97
375.44	8175.96
375.806	8092.1
376.171	8266.25
376.537	8349.98
376.902	8291.66
377.268	8403.61
377.633	8467.06
377.998	8603.93
378.364	8771.38
378.729	8692.85
379.094	8729.02
379.459	8589.19
379.825	8575.22
380.19	8566.69
380.555	8541.59
380.92	8470.94
381.285	8474.05
381.65	8573.15
382.015	8543.66
382.38	8618.67
382.745	8505.63
383.11	8515.46
383.474	8598.24
383.839	8560.22
384.204	8596.69
384.569	8530.99
384.933	8522.71
385.298	8470.68
385.663	8506.92
386.027	8645.56
386.392	8686.39
386.756	8729.02
387.121	8889.85
387.485	9019.03
387.849	9064.38
388.214	8920.8
388.578	8896.04
388.942	8745.55
389.307	8770.09
389.671	8834.63
390.035	8915.39
390.399	8922.09
390.763	8990.68
391.127	9133.92
391.492	9397.81
391.856	9582.17
392.219	9766.01
392.583	9801.88
392.947	9507.23
393.311	9211.14
393.675	9262.08
394.039	9155.03
394.403	9224.77
394.766	9187.46
395.13	9064.12
395.494	9138.55
395.857	9178.97
396.221	9303.48
396.584	9522.63
396.948	9667.07
397.311	9970.33
397.675	10146.23
398.038	10235.12
398.401	9930.66
398.765	9699.63
399.128	9577.81
399.491	9436.09
399.854	9333.82
400.218	9332.53
400.581	9298.08
400.944	9275.19
401.307	9077.78
401.67	9165.33
402.033	9092.46
402.396	9174.08
402.759	9127.48
403.122	9261.05
403.485	9229.15
403.847	9390.62
404.21	9569.08
404.573	9682.97
404.936	9748.59
405.298	9584.99
405.661	9433.27
406.023	9207.79
406.386	9160.69
406.749	9069.53
407.111	9057.94
407.473	9325.34
407.836	9444.06
408.198	9480.01
408.561	9520.58
408.923	9537.77
409.285	9570.11
409.647	9482.32
410.009	9361.07
410.372	9302.45
410.734	9214.74
411.096	9311.45
411.458	9278.28
411.82	9376.74
412.182	9494.39
412.544	9654.51
412.906	9642.2
413.267	9670.15
413.629	9497.47
413.991	9410.4
414.353	9412.2
414.714	9220.14
415.076	9237.64
415.438	9276.74
415.799	9327.14
416.161	9197.24
416.522	9212.94
416.884	9210.11
417.245	9139.07
417.607	9110.74
417.968	9133.66
418.329	9210.88
418.691	9163.78
419.052	9237.38
419.413	9415.03
419.774	9521.35
420.135	9868.97
420.497	10085.15
420.858	10445.89
421.219	10532.81
421.58	10364.79
421.941	10015.09
422.302	9764.22
422.662	9641.68
423.023	9521.86
423.384	9497.47
423.745	9503.89
424.106	9567.29
424.466	9742.44
424.827	9568.31
425.187	9271.08
425.548	9109.2
425.909	8976.24
426.269	9033.46
426.63	9128.51
426.99	9330.99
427.35	9364.15
427.711	9325.85
428.071	9464.09
428.431	9820.06
428.792	10460.68
429.152	11080.7
429.512	11247.17
429.872	11170.56
430.232	10883.8
430.592	10409.94
430.952	9845.67
431.312	9365.69
431.672	9129.28
432.032	9016.97
432.392	9288.31
432.752	9981.84
433.111	10500.19
433.471	10439.52
433.831	9930.41
434.19	9765.24
434.55	9702.71
434.91	9474.62
435.269	9720.14
435.629	9784.2
435.988	9835.69
436.348	9643.22
436.707	9367.49
437.066	9349.76
437.426	9480.27
437.785	9541.11
438.144	9548.3
438.503	9422.74
438.862	9428.9
439.222	9267.48
439.581	9161.47
439.94	9269.02
440.299	9839.53
440.658	10388.26
441.017	10446.4
441.376	10444.87
441.734	10199.63
442.093	10130.9
442.452	10248.4
442.811	10292.31
443.169	10246.36
443.528	10031.2
443.887	10005.12
444.245	9972.88
444.604	9747.56
444.962	9598.33
445.321	9542.65
445.679	9693.73
446.038	9764.22
446.396	9548.04
446.754	9291.91
447.112	9216.28
447.471	9207.79
447.829	9024.96
448.187	9131.34
448.545	9146.53
448.903	9053.82
449.261	9060.26
449.619	8932.41
449.977	8883.66
450.335	8650.73
450.693	8576
451.051	8592.29
451.409	8499.16
451.766	8517.79
452.124	8408.53
452.482	8196.99
452.839	8082.23
453.197	7948.91
453.555	7900.79
453.912	7846.92
454.27	8053.92
454.627	8281.81
454.984	8287.25
455.342	8190.76
455.699	7931.22
456.056	7975.69
456.414	8145.08
456.771	8337.54
457.128	8497.6
457.485	8535.13
457.842	8488.8
458.199	8509.25
458.556	8675.02
458.913	8616.6
459.27	8733.41
459.627	8508.73
459.984	8625.91
460.341	8614.53
460.697	8428.74
461.054	8045.08
461.411	7820.63
461.767	7564.92
462.124	7460.75
462.481	7716.7
462.837	7883.87
463.194	8188.42
463.55	8204.25
463.907	8554.53
464.263	8753.56
464.619	9121.04
464.976	9349.24
465.332	9402.95
465.688	9082.67
466.044	8463.17
466.4	8210.22
466.756	8000.12
467.112	7948.91
467.468	7986.87
467.824	7859.67
468.18	7640.32
468.536	7617.63
468.892	7411.37
469.248	7372.95
469.604	7247.66
469.959	7233.52
470.315	7261.79
470.671	7276.7
471.026	7361.19
471.382	7423.92
471.737	7589.97
472.093	7778.18
472.448	8047.68
472.804	8255.61
473.159	8394.81
473.514	8358.53
473.87	8563.58
474.225	8931.64
474.58	9375.46
474.935	9392.42
475.29	9197.5
475.645	9084.73
476	8956.13
476.355	8874.89
476.71	8781.19
477.065	9239.7
477.42	9479.24
477.775	9568.57
478.13	9519.03
478.485	9548.81
478.839	9670.15
479.194	10181.49
479.549	10501.72
479.903	10584.03
480.258	10320.9
480.612	10548.61
480.967	10983.94
481.321	11139.85
481.675	10753.84
482.03	10428.81
482.384	10302.27
482.738	10315.54
483.093	10447.42
483.447	10847.7
483.801	11483.89
484.155	11848.43
484.509	14290.14
484.863	28932.65
485.217	38283.6
485.571	40186.02
485.925	28420.45
486.279	20775.23
486.632	16759.41
486.986	13854.88
487.34	12024.73
487.694	11228.15
488.047	10829.9
488.401	10856.34
488.754	10677.74
489.108	10457.11
489.461	10261.17
489.815	10066.74
490.168	10165.4
490.522	10257.08
490.875	10325.75
491.228	10205.24
491.581	10253
491.935	10261.17
492.288	10189.92
492.641	10358.66
492.994	10264.23
493.347	10532.56
493.7	10551.42
494.053	10522.62
494.406	10254.27
494.759	9893.04
495.111	10256.32
495.464	11050.99
495.817	11638.3
496.169	11331.61
496.522	10593.7
496.875	9771.13
497.227	9517.75
497.58	9411.17
497.932	9670.4
498.285	9741.41
498.637	10110.97
498.989	10404.58
499.342	10485.66
499.694	10085.66
500.046	9770.62
500.398	10150.32
500.751	10440.79
501.103	10467.05
501.455	10477.51
501.807	10434.42
502.159	10499.68
502.511	10552.94
502.862	10427.02
503.214	10240.49
503.566	9806.23
503.918	9626.81
504.27	9548.55
504.621	9656.56
504.973	9483.86
505.324	9537.52
505.676	9763.19
506.027	9816.22
506.379	9365.44
506.73	9060.77
507.082	9087.82
507.433	9289.85
507.784	9508
508.136	9248.96
508.487	9154.51
508.838	8927.25
509.189	8921.84
509.54	9083.44
509.891	8961.55
510.242	9051.76
510.593	8808.56
510.944	8781.97
511.295	8514.94
511.646	8258.47
511.996	8313.96
512.347	8418.89
512.698	8456.96
513.049	8316.03
513.399	8229.16
513.75	8337.02
514.1	8073.4
514.451	7814.9
514.801	7700.8
515.152	7803.96
515.502	8015.98
515.852	8253.02
516.202	8245.76
516.553	8115.22
516.903	7817.5
517.253	7603.8
517.603	7533.61
517.953	7564.14
518.303	7903.39
518.653	8107.69
519.003	7982.19
519.353	7619.97
519.703	7264.93
520.052	7099.94
520.402	7154.18
520.752	7298.68
521.102	7173.56
521.451	7030.2
521.801	7077.4
522.15	7176.7
522.5	7225.93
522.849	7258.91
523.199	7355.43
523.548	7509.33
523.897	7398.57
524.246	7226.45
524.596	7090.76
524.945	7024.16
525.294	7072.41
525.643	7123.79
525.992	7112.78
526.341	7165.44
526.69	7104.13
527.039	6947.55
527.388	6885.32
527.737	7196.61
528.086	7630.41
528.434	8023.78
528.783	7902.09
529.132	7591.54
529.48	7296.85
529.829	7242.16
530.177	7098.89
530.526	7077.4
530.874	7125.1
531.223	7071.89
531.571	7096.01
531.919	7138.2
532.268	7420.52
532.616	7954.89
532.964	8255.61
533.312	8396.1
533.66	8290.36
534.008	8297.88
534.356	8300.47
534.704	8269.1
535.052	8077.04
535.4	7743.27
535.748	7318.04
536.095	7011.57
536.443	6912.63
536.791	7117.76
537.139	7396.48
537.486	7763.59
537.834	7958.53
538.181	8086.39
538.529	8028.45
538.876	7957.23
539.223	7877.63
539.571	7552.14
539.918	7470.16
540.265	7691.42
540.613	7937.98
540.96	7895.58
541.307	7847.7
541.654	7795.37
542.001	7829.74
542.348	7843.01
542.695	7808.39
543.042	7973.61
543.388	8057.82
543.735	8210.48
544.082	8318.36
544.429	8260.02
544.775	7967.89
545.122	7541.17
545.469	7276.44
545.815	7191.37
546.162	7323.27
546.508	7565.45
546.854	8027.93
547.201	8662.36
547.547	8915.39
547.893	8733.16
548.24	8030.53
548.586	7396.48
548.932	7035.7
549.278	6893.46
549.624	6967.76
549.97	6899.24
550.316	6683.15
550.662	6543.32
551.008	6929.17
551.353	7783.91
551.699	8281.55
552.045	8057.04
552.391	7742.49
552.736	7557.36
553.082	7493.66
553.427	7353.08
553.773	6974.84
554.118	6799.4
554.464	7056.95
554.809	7492.88
555.154	7876.85
555.5	7912.23
555.845	7475.9
556.19	7084.74
556.535	6802.82
556.88	6863.78
557.225	6913.16
557.57	6741.56
557.915	6515.12
558.26	6292.39
558.605	6259.09
558.95	6412.52
559.295	7018.66
559.639	7638.49
559.984	8192.57
560.329	8437.02
560.673	8499.41
561.018	8083.27
561.362	7710.7
561.707	7332.68
562.051	7371.12
562.395	7399.87
562.74	7817.5
563.084	7967.63
563.428	8276.62
563.772	8314.99
564.117	8406.72
564.461	8458
564.805	8344.8
565.149	8419.15
565.493	8366.83
565.836	8695.95
566.18	8877.47
566.524	9845.67
566.868	10608.22
567.212	11133
567.555	11368.11
567.899	12284.81
568.242	13311.23
568.586	15014.5
568.929	16915.31
569.273	19090.77
569.616	19875.89
569.96	20498
570.303	21564.51
570.646	22312.36
570.989	23569.87
571.333	23600.06
571.676	22357.04
572.019	19710.33
572.362	20414.42
572.705	23090.38
573.048	26010.05
573.391	27818
573.733	28982.8
574.076	29860.9
574.419	28924.05
574.762	26390.29
575.104	23543.13
575.447	22779.69
575.789	24798.95
576.132	27898.09
576.474	29202.59
576.817	33145.79
577.159	37707.26
577.501	39011.23
577.844	35332.65
578.186	28883.49
578.528	25553.79
578.87	24629.15
579.212	25334.15
579.554	27281.82
579.896	27058.84
580.238	29589.38
580.58	37660.24
580.922	43870.74
581.264	47593.14
581.606	42499.42
581.947	37541.7
582.289	31127.72
582.631	25257.34
582.972	21546.83
583.314	20926.84
583.655	21658.81
583.997	25127.77
584.338	29048.93
584.679	32403.84
585.021	32155.23
585.362	28729.37
585.703	25276.48
586.044	23846.66
586.385	25518.21
586.726	27756.59
587.067	27252.1
587.408	24745.46
587.749	22631.45
588.09	20695.85
588.431	18920.57
588.772	17128.77
589.113	17064.22
589.453	17200.47
589.794	16530.39
590.134	15301.59
590.475	14350.04
590.815	14237.46
591.156	14216.73
591.496	14680.74
591.837	18727.41
592.177	22555.12
592.517	25749.15
592.857	24668.16
593.198	22421.35
593.538	19004.32
593.878	17218.02
594.218	17348.53
594.558	18505.84
594.898	18152.21
595.237	16767.58
595.577	14873.57
595.917	13404.23
596.257	13780.83
596.596	14247.44
596.936	15106.08
597.276	14277.4
597.615	14463.81
597.955	17359.4
598.294	20122.33
598.633	20976.47
598.973	20104.87
599.312	19759.04
599.651	19676.86
599.991	18856.03
600.33	18432.12
600.669	17457.5
