Data from FLMS007011_12-35-24-956.txt Node
Date: Thu Apr 21 12:35:24 MDT 2016
User: lab_user
Spectrometer: FLMS00701
Autoset integration time: false
Trigger mode: 0
Integration Time (sec): 5.000000E-3
Scans to average: 10
Electric dark correction enabled: true
Nonlinearity correction enabled: true
Boxcar width: 0
XAxis mode: Wavelengths
Stop averaging: false
Number of Pixels in Spectrum: 2048
>>>>>Begin Spectral Data<<<<<
178.41	27.26
178.791	27.26
179.172	27.26
179.553	-22.16
179.934	-36.74
180.316	-78.48
180.697	-65.04
181.078	-64.47
181.459	-32.16
181.84	-46.46
182.221	-19.59
182.602	5.84
182.983	9.84
183.364	26.98
183.744	32.69
184.125	55.81
184.506	69.23
184.887	82.64
185.268	156.51
185.648	159.93
186.029	165.92
186.41	201.82
186.791	233.43
187.171	257.06
187.552	348.09
187.932	364.01
188.313	373.95
188.694	380.21
189.074	392.14
189.455	410.04
189.835	421.11
190.216	447.52
190.596	495.19
190.977	479.3
191.357	490.09
191.737	498.6
192.118	513.06
192.498	520.72
192.878	498.88
193.258	539.43
193.639	535.47
194.019	519.3
194.399	546.52
194.779	533.2
195.159	548.22
195.54	533.48
195.92	548.22
196.3	539.43
196.68	550.21
197.06	543.97
197.44	549.64
197.82	548.51
198.2	549.36
198.58	569.48
198.959	545.39
199.339	550.21
199.719	538.02
200.099	552.76
200.479	543.4
200.858	548.22
201.238	576.28
201.618	565.51
201.998	555.03
202.377	524.41
202.757	547.94
203.136	556.73
203.516	563.53
203.896	564.66
204.275	562.11
204.655	583.65
205.034	563.81
205.414	567.21
205.793	568.63
206.172	581.67
206.552	550.77
206.931	572.6
207.31	598.38
207.69	604.61
208.069	588.75
208.448	590.73
208.827	579.4
209.207	585.63
209.586	602.35
209.965	615.09
210.344	620.76
210.723	593.28
211.102	591.3
211.481	607.73
211.86	614.53
212.239	649.35
212.618	656.71
212.997	640.29
213.376	640.86
213.755	650.77
214.134	634.63
214.513	664.64
214.891	676.81
215.27	689.25
215.649	718.95
216.028	718.67
216.406	703.12
216.785	725.74
217.164	733.09
217.542	733.09
217.921	752.88
218.3	745.82
218.678	801.2
219.057	778.6
219.435	813.07
219.814	807.98
220.192	835.94
220.57	889
220.949	843.84
221.327	900.85
221.705	895.49
222.084	922.85
222.462	947.38
222.84	982.32
223.218	983.45
223.597	996.69
223.975	1007.11
224.353	1076.37
224.731	1071.03
225.109	1128.13
225.487	1126.73
225.865	1176.48
226.243	1245.58
226.621	1246.42
226.999	1270.56
227.377	1345.74
227.755	1398.71
228.133	1400.39
228.511	1418.03
228.889	1472.91
229.266	1500.33
229.644	1560.46
230.022	1636.74
230.4	1668.85
230.777	1700.38
231.155	1757
231.533	1791.85
231.91	1817.48
232.288	1849.51
232.665	1912.97
233.043	1983.61
233.42	2016.96
233.798	2091.66
234.175	2136.61
234.553	2202.89
234.93	2248.33
235.307	2301.22
235.685	2318.93
236.062	2344.94
236.439	2411.31
236.816	2497.22
237.194	2550.49
237.571	2568.7
237.948	2633.22
238.325	2705.12
238.702	2765.41
239.079	2788.51
239.456	2858.9
239.833	2903.96
240.21	2948.72
240.587	3034.32
240.964	3058.72
241.341	3142.01
241.718	3240.26
242.095	3206.61
242.472	3255.3
242.849	3305.33
243.225	3370.62
243.602	3400.92
243.979	3449.22
244.356	3531.02
244.732	3581.43
245.109	3633.43
245.486	3670.17
245.862	3777.29
246.239	3749.3
246.615	3834.06
246.992	3847.91
247.368	3888.08
247.745	3976.22
248.121	4019.85
248.497	4055.33
248.874	4067.79
249.25	4106.5
249.626	4188.46
250.003	4251.98
250.379	4313.02
250.755	4333.53
251.131	4348.65
251.507	4395.59
251.884	4496.68
252.26	4483.21
252.636	4474.86
253.012	4591.19
253.388	4640.7
253.764	4677
254.14	4697.7
254.516	4704.69
254.892	4717.32
255.268	4770.24
255.643	4817.23
256.019	4827.7
256.395	4911.39
256.771	4908.44
257.147	4924.8
257.522	4883.5
257.898	4998.23
258.274	4985.1
258.649	5043.22
259.025	5027.42
259.4	5010.01
259.776	5087.12
260.151	5129.12
260.527	5109.33
260.902	5157.21
261.278	5161.75
261.653	5184.74
262.028	5170.84
262.404	5218.69
262.779	5214.95
263.154	5279.06
263.53	5310.03
263.905	5222.16
264.28	5246.74
264.655	5257.16
265.03	5292.41
265.405	5304.16
265.781	5311.1
266.156	5299.09
266.531	5290.01
266.906	5371.41
267.281	5372.21
267.655	5300.15
268.03	5282.8
268.405	5265.71
268.78	5351.4
269.155	5297.22
269.53	5287.61
269.904	5307.36
270.279	5318.84
270.654	5336.99
271.029	5304.43
271.403	5273.45
271.778	5283.87
272.152	5248.88
272.527	5281.46
272.901	5334.59
273.276	5313.5
273.65	5264.91
274.025	5292.41
274.399	5244.6
274.774	5271.85
275.148	5283.33
275.522	5302.56
275.897	5280.66
276.271	5244.34
276.645	5268.11
277.019	5328.18
277.393	5333.52
277.768	5225.1
278.142	5232.32
278.516	5190.09
278.89	5189.56
279.264	5167.1
279.638	5188.22
280.012	5189.02
280.386	5178.06
280.76	5202.65
281.133	5173.78
281.507	5136.88
281.881	5162.55
282.255	5186.08
282.629	5134.21
283.002	5086.58
283.376	5081.23
283.75	5033.31
284.123	5065.44
284.497	5043.22
284.87	5033.31
285.244	5018.58
285.618	5029.83
285.991	4978.67
286.364	4943.83
286.738	4915.95
287.111	4949.73
287.485	4883.5
287.858	4859.09
288.231	4842.72
288.605	4820.45
288.978	4818.03
289.351	4733.98
289.724	4749.29
290.097	4756.81
290.47	4689.1
290.843	4693.4
291.217	4631.55
291.59	4556.74
291.963	4597.92
292.336	4536.54
292.708	4492.1
293.081	4499.11
293.454	4496.14
293.827	4408
294.2	4375.09
294.573	4315.45
294.945	4312.75
295.318	4301.14
295.691	4273.32
296.064	4262.79
296.436	4205.77
296.809	4214.42
297.181	4174.4
297.554	4119.22
297.926	4133.83
298.299	4042.6
298.671	4134.91
299.044	4079.43
299.416	4102.71
299.788	4079.97
300.161	3980.55
300.533	4015.78
300.905	4037.73
301.278	4001.69
301.65	4024.18
302.022	4012.8
302.394	3980.28
302.766	3947.75
303.138	3957.78
303.51	3943.41
303.882	3948.84
304.254	3958.33
304.626	4058.58
304.998	4003.05
305.37	3990.85
305.742	4014.97
306.114	4049.1
306.485	4126.25
306.857	4133.56
307.229	4156.55
307.601	4207.66
307.972	4244.14
308.344	4253.87
308.716	4292.23
309.087	4379.41
309.459	4369.7
309.83	4509.07
310.202	4545.97
310.573	4557.01
310.945	4598.73
311.316	4571.01
311.687	4672.43
312.059	4693.4
312.43	4701.46
312.801	4740.96
313.172	4706.84
313.544	4710.06
313.915	4704.42
314.286	4648.23
314.657	4653.07
315.028	4605.72
315.399	4656.56
315.77	4689.37
316.141	4724.84
316.512	4754.66
316.883	4853.19
317.254	5018.85
317.625	4996.89
317.996	5191.96
318.366	5353.27
318.737	5504.44
319.108	5663.6
319.478	5729.53
319.849	5847.45
320.22	5947.46
320.59	6057.43
320.961	6136.31
321.331	6188.96
321.702	6095.82
322.072	6146.1
322.443	6194.78
322.813	6239.2
323.184	6227.3
323.554	6227.83
323.924	6146.9
324.295	6182.35
324.665	6138.96
325.035	6158.8
325.405	6101.64
325.775	6050.54
326.145	5929.69
326.515	5916.96
326.886	5788.77
327.256	5699.23
327.626	5539.06
327.995	5392.75
328.365	5219.49
328.735	5030.37
329.105	4897.45
329.475	4798.7
329.845	4774.81
330.215	4831.18
330.584	4891.55
330.954	4962.33
331.324	4926.14
331.693	4823.13
332.063	4709.26
332.432	4597.11
332.802	4342.71
333.171	4224.15
333.541	3994.65
333.91	3911.41
334.28	3855.24
334.649	3850.35
335.018	3770.5
335.388	3753.92
335.757	3718.04
336.126	3713.14
336.495	3805
336.865	3813.96
337.234	3868.54
337.603	3965.92
337.972	4056.96
338.341	4207.39
338.71	4357.82
339.079	4471.89
339.448	4693.93
339.817	4863.38
340.186	5118.42
340.554	5259.56
340.923	5519.35
341.292	5657.48
341.661	5942.42
342.029	6177.85
342.398	6379.72
342.767	6527.43
343.135	6836.65
343.504	6996.81
343.872	7252.56
344.241	7517.09
344.609	7671.27
344.978	7813.26
345.346	8109.95
345.715	8228.05
346.083	8329.95
346.451	8592.74
346.82	8707.51
347.188	8906.55
347.556	8944.97
347.924	9251.97
348.292	9220.84
348.66	9424.21
349.028	9536.93
349.396	9644.43
349.764	9761.58
350.132	9893.48
350.5	9938.78
350.868	10035.22
351.236	10165.07
351.604	10241.18
351.972	10410.12
352.34	10291.99
352.707	10512.1
353.075	10506.24
353.443	10552.87
353.81	10574.78
354.178	10703.63
354.545	10817.11
354.913	10888.05
355.28	10903.31
355.648	11077.58
356.015	11022.22
356.383	11085.71
356.75	11103.99
357.117	11128.1
357.485	11225.03
357.852	11271.2
358.219	11310.75
358.586	11332.55
358.954	11285.9
359.321	11382.48
359.688	11394.9
360.055	11564.84
360.422	11494.71
360.789	11517.25
361.156	11503.82
361.523	11490.66
361.89	11589.65
362.256	11683.01
362.623	11602.81
362.99	11684.53
363.357	11607.11
363.724	11647.09
364.09	11686.81
364.457	11634.69
364.823	11783.4
365.19	11721.46
365.557	11836.23
365.923	11775.57
366.29	11700.97
366.656	11843.56
367.022	11946.64
367.389	11801.86
367.755	11817.78
368.121	11725.5
368.488	11869.08
368.854	11841.79
369.22	11779.61
369.586	11748.51
369.952	11694.9
370.318	11696.42
370.684	11632.92
371.051	11684.53
371.416	11613.44
371.782	11634.44
372.148	11590.91
372.514	11614.19
372.88	11570.66
373.246	11542.82
373.612	11667.83
373.977	11649.62
374.343	11756.86
374.709	11894.35
375.074	11772.03
375.44	11758.88
375.806	11697.43
376.171	11739.66
376.537	11815.25
376.902	11817.02
377.268	11959.77
377.633	11946.38
377.998	12081.7
378.364	12234.57
378.729	12191.7
379.094	12275.92
379.459	11942.59
379.825	11891.57
380.19	11948.15
380.555	11720.44
380.92	11625.08
381.285	11571.42
381.65	11685.79
382.015	11723.23
382.38	11688.83
382.745	11503.07
383.11	11501.04
383.474	11574.97
383.839	11532.18
384.204	11555.73
384.569	11424.29
384.933	11424.29
385.298	11394.9
385.663	11480.02
386.027	11456.97
386.392	11570.66
386.756	11670.11
387.121	11680.23
387.485	11797.81
387.849	11972.65
388.214	11742.19
388.578	11698.19
388.942	11478.25
389.307	11548.64
389.671	11494.2
390.035	11541.55
390.399	11575.47
390.763	11713.62
391.127	11894.6
391.492	12159.16
391.856	12334.89
392.219	12734.9
392.583	12779.4
392.947	12394.11
393.311	11970.63
393.675	11953.71
394.039	11799.84
394.403	11811.21
394.766	11769.5
395.13	11713.62
395.494	11622.04
395.857	11752.31
396.221	11892.83
396.584	12067.32
396.948	12198.26
397.311	12618.94
397.675	12922.9
398.038	12987.7
398.401	12733.39
398.765	12390.33
399.128	12145.54
399.491	11895.61
399.854	11736.63
400.218	11763.68
400.581	11633.93
400.944	11655.69
401.307	11456.21
401.67	11419.73
402.033	11336.61
402.396	11402
402.759	11396.42
403.122	11446.08
403.485	11527.88
403.847	11622.04
404.21	11919.61
404.573	11981.99
404.936	12094.57
405.298	11850.64
405.661	11586.61
406.023	11312.78
406.386	11109.83
406.749	11105.77
407.111	11058.79
407.473	11252.17
407.836	11442.79
408.198	11646.33
408.561	11592.94
408.923	11565.85
409.285	11626.85
409.647	11408.33
410.009	11310.5
410.372	11224.78
410.734	11134.45
411.096	11070.48
411.458	11272.21
411.82	11248.37
412.182	11462.54
412.544	11473.18
412.906	11535.98
413.267	11546.36
413.629	11428.6
413.991	11210.32
414.353	11192.05
414.714	11009.78
415.076	11005.71
415.438	11039.24
415.799	11124.55
416.161	11022.73
416.522	10881.19
416.884	10781.24
417.245	10822.2
417.607	10773.87
417.968	10819.4
418.329	10905.59
418.691	10897.71
419.052	10965.83
419.413	11037.21
419.774	11128.1
420.135	11636.21
420.497	12033.24
420.858	12333.38
421.219	12475.46
421.58	12290.79
421.941	11917.59
422.302	11429.61
422.662	11396.93
423.023	11211.59
423.384	11152.72
423.745	11248.12
424.106	11306.19
424.466	11360.69
424.827	11231.12
425.187	10950.83
425.548	10678.94
425.909	10561.79
426.269	10622.92
426.63	10711.27
426.99	11002.41
427.35	10903.82
427.711	10911.19
428.071	11084.69
428.431	11364.24
428.792	12165.72
429.152	12937.72
429.512	13148.12
429.872	13172.46
430.232	12854.81
430.592	12241.12
430.952	11612.68
431.312	11033.91
431.672	10495.28
432.032	10463.16
432.392	10734.94
432.752	11534.72
433.111	12245.91
433.471	12416.27
433.831	11683.52
434.19	11299.09
434.55	11296.05
434.91	11028.32
435.269	11216.66
435.629	11307.96
435.988	11463.56
436.348	11386.03
436.707	11001.65
437.066	10847.63
437.426	10997.58
437.785	11028.83
438.144	11135.97
438.503	11017.65
438.862	10907.63
439.222	10724.5
439.581	10600
439.94	10688.61
440.299	11316.07
440.658	12031.98
441.017	12256.25
441.376	12218.68
441.734	11930.98
442.093	11686.05
442.452	11753.82
442.811	12003.45
443.169	11958
443.528	11705.78
443.887	11533.96
444.245	11473.18
444.604	11294.52
444.962	11158.56
445.321	11096.12
445.679	11166.68
446.038	11320.38
446.396	11144.35
446.754	10808.46
447.112	10720.43
447.471	10501.14
447.829	10379.51
448.187	10437.66
448.545	10494
448.903	10496.81
449.261	10477.69
449.619	10373.13
449.977	10259.82
450.335	10036.25
450.693	9901.67
451.051	9891.69
451.409	9880.42
451.766	9941.6
452.124	9689.05
452.482	9426.52
452.839	9247.34
453.197	9151.61
453.555	9044.21
453.912	9024.63
454.27	9236.8
454.627	9550.79
454.984	9562.08
455.342	9418.55
455.699	9150.84
456.056	9153.41
456.414	9361.77
456.771	9532.83
457.128	9789.51
457.485	9855.33
457.842	9773.63
458.199	9770.55
458.556	9967.18
458.913	9866.09
459.27	10016.3
459.627	9889.13
459.984	9818.2
460.341	9979.21
460.697	9753.38
461.054	9423.95
461.411	8943.69
461.767	8594.29
462.124	8536.86
462.481	8789.38
462.837	8947.3
463.194	9444.75
463.55	9307.27
463.907	9688.79
464.263	10046.99
464.619	10348.13
464.976	10771.83
465.332	10992.25
465.688	10584.46
466.044	9813.33
466.4	9403.14
466.756	9100.63
467.112	9148.78
467.468	9088.78
467.824	9071.78
468.18	8876.88
468.536	8716.03
468.892	8558.08
469.248	8440.84
469.604	8324.51
469.959	8269.03
470.315	8248.54
470.671	8259.69
471.026	8348.61
471.382	8495.2
471.737	8754.26
472.093	8921.51
472.448	9199.74
472.804	9411.36
473.159	9641.87
473.514	9669.05
473.87	9723.4
474.225	10129.3
474.58	10680.47
474.935	10879.41
475.29	10645.33
475.645	10414.97
476	10275.39
476.355	10190.61
476.71	10197
477.065	10519.75
477.42	10898.48
477.775	10990.22
478.13	10876.36
478.485	10917.03
478.839	11074.79
479.194	11560.28
479.549	12045.86
479.903	12180.85
480.258	11972.39
480.612	12063.53
480.967	12436.17
481.321	12802.53
481.675	12440.45
482.03	11980.48
482.384	11704.26
482.738	11763.43
483.093	11968.61
483.447	12393.6
483.801	13073.83
484.155	13693.43
484.509	15282.12
484.863	31117.07
485.217	43808.76
485.571	49038.29
485.925	36073.49
486.279	24022.28
486.632	18189.88
486.986	15570.43
487.34	13775.01
487.694	12765.32
488.047	12281.21
488.401	12362.36
488.754	12304.65
489.108	12040.81
489.461	11757.36
489.815	11534.72
490.168	11658.47
490.522	11687.57
490.875	11717.92
491.228	11650.13
491.581	11716.65
491.935	11785.43
492.288	11602.3
492.641	11766.97
492.994	11709.82
493.347	11979.47
493.7	12022.13
494.053	11974.67
494.406	11836.23
494.759	11313.79
495.111	11564.84
495.464	12573.89
495.817	13427.22
496.169	13194.28
496.522	12155.12
496.875	11140.29
497.227	10783.03
497.58	10697.78
497.932	10929.99
498.285	11145.11
498.637	11478.75
498.989	11846.85
499.342	11979.21
499.694	11619.76
500.046	11204.23
500.398	11477.99
500.751	11921.13
501.103	11960.78
501.455	12025.92
501.807	11901.17
502.159	12010.52
502.511	11920.37
502.862	11904.45
503.214	11610.65
503.566	11256.99
503.918	10896.44
504.27	10888.05
504.621	10926.95
504.973	10777.17
505.324	10796.51
505.676	11026.29
506.027	11244.31
506.379	10762.93
506.73	10178.61
507.082	10211.05
507.433	10510.57
507.784	10815.84
508.136	10584.21
508.487	10451.69
508.838	10059.77
509.189	10038.29
509.54	10257.01
509.891	10212.58
510.242	10079.97
510.593	10067.44
510.944	9893.22
511.295	9685.97
511.646	9347.89
511.996	9365.62
512.347	9468.13
512.698	9589.54
513.049	9490.72
513.399	9350.2
513.75	9295.7
514.1	9168.86
514.451	8833.27
514.801	8735.15
515.152	8817.52
515.502	9041.64
515.852	9287.47
516.202	9352.26
516.553	9294.15
516.903	8862.43
517.253	8635.66
517.603	8500.38
517.953	8611.87
518.303	8893.65
518.653	9138.74
519.003	9185.59
519.353	8580.32
519.703	8172
520.052	7993.29
520.402	8031.76
520.752	8244.13
521.102	8176.15
521.451	7955.59
521.801	7990.43
522.15	8088.4
522.5	8192.76
522.849	8294.96
523.199	8333.58
523.548	8543.59
523.897	8566.1
524.246	8297.03
524.596	7941.55
524.945	7987.83
525.294	8004.73
525.643	8087.62
525.992	8113.85
526.341	8103.98
526.69	8075.67
527.039	8002.13
527.388	7721.84
527.737	8091.25
528.086	8607.48
528.434	9222.9
528.783	9047.31
529.132	8619.63
529.48	8304.81
529.829	8145.78
530.177	8040.08
530.526	8026.56
530.874	8044.75
531.223	8050.73
531.571	7988.61
531.919	8071.77
532.268	8340.06
532.616	9006.59
532.964	9446.55
533.312	9533.34
533.66	9422.66
534.008	9456.83
534.356	9438.85
534.704	9303.15
535.052	9030.56
535.4	8770.28
535.748	8305.85
536.095	7896.29
536.443	7801.55
536.791	7996.93
537.139	8362.35
537.486	8885.39
537.834	9043.7
538.181	9140.03
538.529	9123.8
538.876	9174.26
539.223	8916.35
539.571	8605.93
539.918	8451.45
540.265	8627.9
540.613	9073.33
540.96	8968.18
541.307	8887.72
541.654	8801.26
542.001	8895.71
542.348	8838.69
542.695	8844.88
543.042	8987
543.388	9245.8
543.735	9379.5
544.082	9404.42
544.429	9287.72
544.775	9005.3
545.122	8566.62
545.469	8070.21
545.815	8057.74
546.162	8229.6
546.508	8568.94
546.854	9087.49
547.201	9907.3
547.547	10215.9
547.893	9953.88
548.24	9144.92
548.586	8200.81
548.932	7851.53
549.278	7715.32
549.624	7894.47
549.97	7853.61
550.316	7504.55
550.662	7313.52
551.008	7760.92
551.353	8818.3
551.699	9499.45
552.045	9258.15
552.391	8691.23
552.736	8474.49
553.082	8413.64
553.427	8306.11
553.773	7837.21
554.118	7603.99
554.464	7906.96
554.809	8583.69
555.154	9031.59
555.5	9033.65
555.845	8590.93
556.19	7983.67
556.535	7584.42
556.88	7705.16
557.225	7790.87
557.57	7596.68
557.915	7282.13
558.26	6929.1
558.605	6983.95
558.95	7211.2
559.295	7934.79
559.639	8620.15
559.984	9476.86
560.329	9643.66
560.673	9636.48
561.018	9054.52
561.362	8649.1
561.707	8221.3
562.051	8274.73
562.395	8309.99
562.74	8855.2
563.084	9079.25
563.428	9486.1
563.772	9451.95
564.117	9598
564.461	9669.82
564.805	9456.06
565.149	9515.11
565.493	9533.85
565.836	9784.64
566.18	10082.01
566.524	11251.92
566.868	12217.93
567.212	12828.67
567.555	12910.59
567.899	14036.31
568.242	15483.72
568.586	17354.14
568.929	19774.72
569.273	22466.44
569.616	22999.52
569.96	23460.12
570.303	24830.78
570.646	25686.01
570.989	27080.87
571.333	27239.75
571.676	25621.46
572.019	21742.47
572.362	22453.43
572.705	26435.63
573.048	30328.01
573.391	32339.95
573.733	33733.41
574.076	34429.21
574.419	33279.61
574.762	29601.11
575.104	26098.6
575.447	24788.82
575.789	28077.36
576.132	32834.35
576.474	33604.65
576.817	38557.22
577.159	44287.15
577.501	46163.99
577.844	40401.24
578.186	31267.75
578.528	27037.16
578.87	26874.86
579.212	28484.03
579.554	31570.38
579.896	31236.23
580.238	33400.44
580.58	44455.71
580.922	52342.34
581.264	56422.57
581.606	48663.37
581.947	41803.11
582.289	33297.12
582.631	26392.43
582.972	22504.98
583.314	22806.62
583.655	24245.07
583.997	29003.87
584.338	34563.72
584.679	38368.48
585.021	37791.59
585.362	32351.29
585.703	27543.56
586.044	25479.61
586.385	28818.28
586.726	32451.34
587.067	31676.04
587.408	27657.28
587.749	25029.54
588.09	22854.23
588.431	20819.64
588.772	18450.79
589.113	19079.12
589.453	19649.73
589.794	18863.6
590.134	16873.93
590.475	15811.8
590.815	15813.53
591.156	16158.61
591.496	16520.42
591.837	21779.06
592.177	27391.28
592.517	31399.23
592.857	28772.56
593.198	25205
593.538	20387.81
593.878	18156.09
594.218	19160.63
594.558	21426.67
