Data from FLMS007011_11-20-40-744.txt Node
Date: Thu Apr 21 11:20:40 MDT 2016
User: lab_user
Spectrometer: FLMS00701
Autoset integration time: false
Trigger mode: 0
Integration Time (sec): 5.000000E-3
Scans to average: 10
Electric dark correction enabled: true
Nonlinearity correction enabled: true
Boxcar width: 0
XAxis mode: Wavelengths
Stop averaging: false
Number of Pixels in Spectrum: 2048
>>>>>Begin Spectral Data<<<<<
178.41	35.31
178.791	35.31
179.172	35.31
179.553	-49.55
179.934	-40.12
180.316	-84.15
180.697	-37.55
181.078	-58.13
181.459	-77.29
181.84	-54.13
182.221	-38.4
182.602	-20.4
182.983	13.89
183.364	33.31
183.744	42.44
184.125	74.99
184.506	75.56
184.887	113.22
185.268	120.63
185.648	127.19
186.029	177.93
186.41	202.72
186.791	199.87
187.171	269.06
187.552	309.75
187.932	356.1
188.313	414.34
188.694	426.84
189.074	437.63
189.455	431.1
189.835	453.53
190.216	458.63
190.596	502.05
190.977	495.24
191.357	502.33
191.737	517.36
192.118	526.16
192.498	532.96
192.878	523.32
193.258	500.06
193.639	583.41
194.019	555.36
194.399	549.12
194.779	560.18
195.159	589.93
195.54	570.94
195.92	577.75
196.3	589.93
196.68	579.16
197.06	580.58
197.44	579.73
197.82	602.96
198.2	600.41
198.58	586.81
198.959	583.41
199.339	595.03
199.719	578.88
200.099	587.38
200.479	595.03
200.858	597.58
201.238	624.48
201.618	591.91
201.998	599.84
202.377	604.09
202.757	630.15
203.136	601.54
203.516	613.44
203.896	631.28
204.275	641.76
204.655	659.87
205.034	656.76
205.414	649.68
205.793	653.65
206.172	639.49
206.552	643.45
206.931	673.17
207.31	686.76
207.69	660.72
208.069	702.88
208.448	689.3
208.827	703.45
209.207	713.63
209.586	733.14
209.965	720.13
210.344	745.86
210.723	727.77
211.102	751.23
211.481	764.52
211.86	808.88
212.239	770.74
212.618	796.16
212.997	822.71
213.376	819.33
213.755	850.95
214.134	857.16
214.513	878.32
214.891	898.92
215.27	882.84
215.649	929.1
216.028	949.4
216.406	949.4
216.785	953.91
217.164	1000.68
217.542	1010.54
217.921	1045.18
218.3	1033.35
218.678	1083.17
219.057	1064.32
219.435	1120.87
219.814	1127.62
220.192	1131.83
220.57	1180.74
220.949	1254.61
221.327	1217.26
221.705	1265.84
222.084	1311.85
222.462	1344.94
222.84	1389.51
223.218	1379.7
223.597	1421.44
223.975	1496.74
224.353	1496.46
224.731	1540.94
225.109	1581.75
225.487	1657.17
225.865	1671.41
226.243	1686.76
226.621	1726.93
226.999	1802.2
227.377	1848.44
227.755	1906.06
228.133	1916.36
228.511	1939.72
228.889	2071.72
229.266	2078.11
229.644	2120.29
230.022	2175.49
230.4	2233.41
230.777	2281.33
231.155	2339.45
231.533	2344.15
231.91	2420.75
232.288	2513
232.665	2573.71
233.043	2577.02
233.42	2680.38
233.798	2712.6
234.175	2754.99
234.553	2825.69
234.93	2890.55
235.307	2920.48
235.685	2976.21
236.062	2990.75
236.439	3039.85
236.816	3157.12
237.194	3216.24
237.571	3272.03
237.948	3292.26
238.325	3374.22
238.702	3409.7
239.079	3431.26
239.456	3508.45
239.833	3580.38
240.21	3609.25
240.587	3687.08
240.964	3748.8
241.341	3803.42
241.718	3842.79
242.095	3861.52
242.472	3951.59
242.849	4031.81
243.225	4078.12
243.602	4146.05
243.979	4127.11
244.356	4227.97
244.732	4276.61
245.109	4330.88
245.486	4393.21
245.862	4406.97
246.239	4506.69
246.615	4501.31
246.992	4627.83
247.368	4625.41
247.745	4669.78
248.121	4702.04
248.497	4762.5
248.874	4820.22
249.25	4907.42
249.626	4960.76
250.003	4979.25
250.379	5077.8
250.755	5081.28
251.131	5169.82
251.507	5179.98
251.884	5267.89
252.26	5275.37
252.636	5326.09
253.012	5453.32
253.388	5453.59
253.764	5520.73
254.14	5549.75
254.516	5538.84
254.892	5630.13
255.268	5692.63
255.643	5652.47
256.019	5673.48
256.395	5744.19
256.771	5781.91
257.147	5828.11
257.522	5832.63
257.898	5888.89
258.274	5924.43
258.649	5952.8
259.025	6025.95
259.4	5981.96
259.776	6058.26
260.151	6011.11
260.527	6046.35
260.902	6175.51
261.278	6150.12
261.653	6162.02
262.028	6177.89
262.404	6226.55
262.779	6246.64
263.154	6274.92
263.53	6331.45
263.905	6242.68
264.28	6283.9
264.655	6330.13
265.03	6291.83
265.405	6347.03
265.781	6310.32
266.156	6349.93
266.531	6379.5
266.906	6372.11
267.281	6469.21
267.655	6338.84
268.03	6377.66
268.405	6360.76
268.78	6428.06
269.155	6392.17
269.53	6476.07
269.904	6392.7
270.279	6447.58
270.654	6450.75
271.029	6432.54
271.403	6409.06
271.778	6470.26
272.152	6419.62
272.527	6396.13
272.901	6473.43
273.276	6448.9
273.65	6519.83
274.025	6468.68
274.399	6484.77
274.774	6451.8
275.148	6466.84
275.522	6467.36
275.897	6471.58
276.271	6432.81
276.645	6530.9
277.019	6503.22
277.393	6543.55
277.768	6446
278.142	6450.48
278.516	6425.16
278.89	6424.1
279.264	6408.53
279.638	6425.16
280.012	6436.24
280.386	6395.34
280.76	6360.5
281.133	6401.41
281.507	6368.42
281.881	6486.61
282.255	6407.21
282.629	6334.88
283.002	6321.68
283.376	6344.13
283.75	6289.45
284.123	6361.55
284.497	6270.69
284.87	6258.53
285.244	6292.09
285.618	6191.65
285.991	6142.44
286.364	6171.02
286.738	6220.47
287.111	6192.44
287.485	6151.7
287.858	6106.45
288.231	6060.38
288.605	6039.72
288.978	6024.09
289.351	5961.82
289.724	5910.9
290.097	5910.37
290.47	5873.76
290.843	5872.97
291.217	5815.64
291.59	5725.32
291.963	5743.66
292.336	5689.17
292.708	5626.67
293.081	5561.47
293.454	5593.41
293.827	5530.05
294.2	5478.37
294.573	5499.95
294.945	5428.26
295.318	5395.73
295.691	5399.46
296.064	5381.33
296.436	5302.87
296.809	5319.95
297.181	5307.14
297.554	5219.27
297.926	5203.23
298.299	5231.29
298.671	5231.56
299.044	5152.17
299.416	5134.52
299.788	5112.05
300.161	5086.36
300.533	5083.95
300.905	5110.44
301.278	5041.93
301.65	5109.64
302.022	5056.92
302.394	4993.45
302.766	4953.53
303.138	4910.37
303.51	4931.81
303.882	4889.72
304.254	4896.42
304.626	4851.36
304.998	4881.4
305.37	4734.83
305.742	4752.83
306.114	4711.45
306.485	4703.66
306.857	4702.58
307.229	4679.73
307.601	4605.77
307.972	4668.98
308.344	4661.18
308.716	4649.08
309.087	4715.48
309.459	4745.57
309.83	4867.99
310.202	4908.22
310.573	5013.54
310.945	5119.54
311.316	5232.89
311.687	5371.46
312.059	5487.7
312.43	5712.3
312.801	5854.13
313.172	5993.36
313.544	6131.33
313.915	6390.06
314.286	6457.6
314.657	6646.01
315.028	6634.16
315.399	6790.17
315.77	6860.6
316.141	6810.41
316.512	6898.16
316.883	6761.51
317.254	6765.2
317.625	6636.01
317.996	6579.91
318.366	6601.25
318.737	6490.3
319.108	6558.31
319.478	6716.28
319.849	6957.49
320.22	7142.62
320.59	7404.29
320.961	7711.46
321.331	8126.35
321.702	8396.33
322.072	8777.81
322.443	9132.34
322.813	9492.82
323.184	9778.54
323.554	10035.78
323.924	10296.11
324.295	10506.79
324.665	10723.53
325.035	11002.2
325.405	10979.08
325.775	11175.35
326.145	11309.02
326.515	11411.16
326.886	11442.07
327.256	11489.94
327.626	11551.47
327.995	11554.25
328.365	11534
328.735	11489.43
329.105	11263.12
329.475	11035.47
329.845	10737.78
330.215	10800.37
330.584	10982.38
330.954	11532.48
331.324	12250.75
331.693	12726.64
332.063	12994.28
332.432	13026.92
332.802	12775.17
333.171	12221.5
333.541	11672.18
333.91	11292.28
334.28	11088.54
334.649	10904.11
335.018	10602.08
335.388	10383.38
335.757	10093.81
336.126	9672.68
336.495	9536.46
336.865	9208.79
337.234	8821.7
337.603	8590.97
337.972	8395.04
338.341	8186.84
338.71	8138.3
339.079	8118.56
339.448	8106.88
339.817	8019.59
340.186	8005.55
340.554	8042.2
340.923	8136.22
341.292	8064.02
341.661	8065.84
342.029	8082.98
342.398	7992.04
342.767	7940.29
343.135	7989.44
343.504	7884.62
343.872	7926.77
344.241	7774.24
344.609	7768.25
344.978	7655.41
345.346	7661.41
345.715	7543.5
346.083	7462.55
346.451	7362.46
346.82	7259.4
347.188	7305.19
347.556	7234.02
347.924	7288.71
348.292	7172.48
348.66	7185.06
349.028	7163.58
349.396	7139.48
349.764	7130.05
350.132	7176.67
350.5	7168.29
350.868	7196.05
351.236	7229.3
351.604	7177.72
351.972	7323.5
352.34	7338.41
352.707	7407.42
353.075	7470.39
353.443	7475.35
353.81	7536.19
354.178	7632.46
354.545	7770.6
354.913	7834.65
355.28	7895.81
355.648	8085.32
356.015	8132.33
356.383	8202.67
356.75	8326.63
357.117	8383.9
357.485	8585.28
357.852	8572.87
358.219	8805.95
358.586	8807.5
358.954	8992.71
359.321	9119.21
359.688	9180.74
360.055	9237.61
360.422	9364.64
360.789	9504.12
361.156	9594.97
361.523	9676.53
361.89	9758.81
362.256	10022.48
362.623	9959.81
362.99	10112.47
363.357	10206.49
363.724	10267.01
364.09	10356.59
364.457	10395.88
364.823	10565.91
365.19	10576.1
365.557	10733.71
365.923	10782.56
366.29	10732.43
366.656	10877.42
367.022	11026.33
367.389	11091.08
367.755	11007.53
368.121	11093.62
368.488	11242.07
368.854	11190.32
369.22	11226.09
369.586	11204.27
369.952	11347.3
370.318	11391.9
370.684	11413.44
371.051	11641.31
371.416	11605.89
371.782	11682.8
372.148	11809.23
372.514	11799.12
372.88	11855.73
373.246	11979.76
373.612	12178.88
373.977	12245.7
374.343	12369.96
374.709	12528.37
375.074	12494.64
375.44	12492.62
375.806	12520.07
376.171	12663.76
376.537	12751.79
376.902	12757.07
377.268	13002.31
377.633	13013.61
377.998	13297.16
378.364	13495.91
378.729	13552.77
379.094	13504.18
379.459	13206.87
379.825	13289.39
380.19	13280.36
380.555	13205.61
380.92	13002.31
381.285	13033.7
381.65	13221.67
382.015	13304.18
382.38	13279.61
382.745	13147.66
383.11	13150.92
383.474	13214.39
383.839	13289.13
384.204	13324.99
384.569	13207.12
384.933	13245.75
385.298	13267.57
385.663	13383.15
386.027	13419.49
386.392	13590.58
386.756	13662.19
387.121	13847.84
387.485	14026.1
387.849	14243.92
388.214	14026.6
388.578	13914.61
388.942	13796.32
389.307	13843.09
389.671	13814.33
390.035	13947.62
390.399	14065.83
390.763	14249.41
391.127	14523.9
391.492	14985.59
391.856	15321.45
392.219	15728.43
392.583	15566.25
392.947	15020.19
393.311	14643.57
393.675	14666.76
394.039	14651.05
394.403	14687.44
394.766	14457.8
395.13	14563.3
395.494	14592.72
395.857	14793.59
396.221	14931.07
396.584	15238.4
396.948	15576.68
397.311	16117
397.675	16369.09
398.038	16448.38
398.401	15988.27
398.765	15687.46
399.128	15340.84
399.491	15230.44
399.854	15065.49
400.218	15208.8
400.581	15007.25
400.944	14972.4
401.307	14602.19
401.67	14838.43
402.033	14674.73
402.396	14797.33
402.759	14895.46
403.122	14932.31
403.485	15165.27
403.847	15379.38
404.21	15598.3
404.573	15780.31
404.936	15807.37
405.298	15548.86
405.661	15180.94
406.023	14809.28
406.386	14786.61
406.749	14707.13
407.111	14786.12
407.473	15090.38
407.836	15417.91
408.198	15552.84
408.561	15568.74
408.923	15602.27
409.285	15644.49
409.647	15332.89
410.009	15025.17
410.372	15191.39
410.734	15069.97
411.096	15110.03
411.458	15337.86
411.82	15452.95
412.182	15590.35
412.544	15731.16
412.906	15835.42
413.267	15667.59
413.629	15489.98
413.991	15364.71
414.353	15410.95
414.714	15101.32
415.076	15115.76
415.438	15215.51
415.799	15350.79
416.161	15101.08
416.522	15008
416.884	14983.6
417.245	15013.72
417.607	15023.68
417.968	14954.47
418.329	15138.15
418.691	15216.26
419.052	15226.21
419.413	15404.73
419.774	15617.67
420.135	16228.57
420.497	16815.81
420.858	17386.81
421.219	17471.56
421.58	17000.38
421.941	16549.93
422.302	15973.39
422.662	15987.78
423.023	15699.38
423.384	15602.27
423.745	15778.33
424.106	15738.61
424.466	16044.58
424.827	15680.75
425.187	15220.24
425.548	14882.76
425.909	14791.1
426.269	14990.57
426.63	15127.95
426.99	15459.66
427.35	15321.95
427.711	15402.25
428.071	15738.11
428.431	16407.5
428.792	17688.67
429.152	18658.88
429.512	18801.06
429.872	18538.1
430.232	18053.99
430.592	17133.19
430.952	16075.83
431.312	15402.25
431.672	14844.16
432.032	15015.96
432.392	15414.92
432.752	16998.9
433.111	17852.6
433.471	17453.77
433.831	16075.09
434.19	16099.39
434.55	16157.41
434.91	15786.27
435.269	16092.2
435.629	16328.45
435.988	16525.66
436.348	16009.36
436.707	15564.76
437.066	15441.27
437.426	15768.65
437.785	15941.63
438.144	15940.14
438.503	15759.71
438.862	15583.14
439.222	15349.55
439.581	15136.9
439.94	15584.88
440.299	16695.52
440.658	17638.54
441.017	17807.68
441.376	17399.41
441.734	16967.49
442.093	16818.29
442.452	17112.91
442.811	17382.85
443.169	17418.19
443.528	16791.81
443.887	16673.49
444.245	16651.7
444.604	16238.48
444.962	16034.41
445.321	16042.6
445.679	16147.25
446.038	16394.37
446.396	16031.19
446.754	15539.67
447.112	15477.55
447.471	15280.18
447.829	15112.77
448.187	15153.33
448.545	15329.66
448.903	15167.26
449.261	15142.38
449.619	14912.64
449.977	14812.52
450.335	14519.91
450.693	14372.97
451.051	14376.46
451.409	14376.96
451.766	14289.61
452.124	13888.61
452.482	13644.16
452.839	13371.37
453.197	13249.76
453.555	13179.02
453.912	13236.72
454.27	13618.63
454.627	14118.3
454.984	13915.61
455.342	13521.46
455.699	13320.23
456.056	13328.5
456.414	13710.49
456.771	14115.05
457.128	14233.68
457.485	14419.88
457.842	14172.5
458.199	14250.91
458.556	14504.94
458.913	14519.91
459.27	14769.17
459.627	14372.97
459.984	14474.51
460.341	14628.37
460.697	14247.92
461.054	13480.63
461.411	12861.63
461.767	12596.33
462.124	12561.85
462.481	13013.36
462.837	13295.15
463.194	13921.36
463.55	13710.49
463.907	14555.82
464.263	14843.41
464.619	15468.11
464.976	15983.06
465.332	15971.9
465.688	15267.24
466.044	14058.59
466.4	13806.07
466.756	13455.32
467.112	13497.41
467.468	13524.72
467.824	13316.47
468.18	12904.1
468.536	12838.77
468.892	12457.62
469.248	12418.84
469.604	12205.11
469.959	12252.76
470.315	12139.53
470.671	12156.18
471.026	12459.64
471.382	12663.26
471.737	12947.06
472.093	13171.24
472.448	13771.55
472.804	14059.09
473.159	14343.02
473.514	14218.7
473.87	14550.33
474.225	15414.92
474.58	16089.22
474.935	16004.15
475.29	15493.45
475.645	15424.37
476	15378.38
476.355	15180.69
476.71	15018.45
477.065	15891.51
477.42	16414.19
477.775	16431.53
478.13	16193.86
478.485	16399.57
478.839	16695.03
479.194	17562.47
479.549	18182.77
479.903	18132.69
480.258	17716.32
480.612	18197.32
480.967	19036.31
481.321	19243.65
481.675	18296.72
482.03	17731.14
482.384	17580
482.738	17772.13
483.093	18058.43
483.447	18821.76
483.801	20047.05
484.155	20625.78
484.509	24913.27
484.863	55434.68
485.217	68675.8
485.571	68569.61
485.925	44391.68
486.279	31925.59
486.632	27124.38
486.986	23262.62
487.34	20175.42
487.694	18975.97
488.047	18574.58
488.401	18664.3
488.754	18232.6
489.108	17906.66
489.461	17500.71
489.815	17315.88
490.168	17658.79
490.522	17710.89
490.875	17745.95
491.228	17446.6
491.581	17669.9
491.935	17654.59
492.288	17457.47
492.641	17717.81
492.994	17734.35
493.347	18130.22
493.7	18099.14
494.053	17934.55
494.406	17597.05
494.759	16908.61
495.111	17798.05
495.464	19396.53
495.817	20235.42
496.169	19382.01
496.522	17755.83
496.875	16488.26
497.227	16235.51
497.58	16259.55
497.932	16702.7
498.285	16795.03
498.637	17633.1
498.989	18258.99
499.342	17958.24
499.694	17259.77
500.046	16824.48
500.398	17621
500.751	18098.65
501.103	18101.61
501.455	18125.29
501.807	18200.28
502.159	18096.43
502.511	18015.74
502.862	17974.78
503.214	17571.85
503.566	16845.26
503.918	16455.56
504.27	16493.71
504.621	16563.06
504.973	16242.2
505.324	16456.3
505.676	16983.81
506.027	17067.66
506.379	15924.51
506.73	15450.96
507.082	15711.79
507.433	16302.18
507.784	16573.7
508.136	15995.96
508.487	15730.66
508.838	15358.5
509.189	15407.22
509.54	15730.41
509.891	15427.6
510.242	15462.14
510.593	15233.42
510.944	15073.45
511.295	14646.07
511.646	14178.5
511.996	14294.35
512.347	14594.46
512.698	14600.7
513.049	14421.63
513.399	14240.68
513.75	14298.1
514.1	13938.12
514.451	13301.17
514.801	13276.35
515.152	13596.34
515.502	13939.37
515.852	14215.96
516.202	14224.7
516.553	13985.36
516.903	13505.68
517.253	13074.87
517.603	13031.44
517.953	13056.29
518.303	13756.79
518.653	14054.84
519.003	13807.07
519.353	12897.06
519.703	12225.28
520.052	12200.82
520.402	12433.95
520.752	12677.09
521.102	12316.54
521.451	12040.35
521.801	12240.91
522.15	12379.79
522.5	12598.6
522.849	12653.95
523.199	12921.18
523.548	13060.31
523.897	12881.99
524.246	12599.1
524.596	12174.84
524.945	12272.43
525.294	12242.43
525.643	12209.14
525.992	12301.67
526.341	12487.84
526.69	12326.12
527.039	11995.41
527.388	11805.69
527.737	12546.75
528.086	13605.36
528.434	14162.76
528.783	13664.94
529.132	13039.72
529.48	12640.37
529.829	12555.56
530.177	12332.92
530.526	12083.51
530.874	12427.4
531.223	12335.94
531.571	12354.09
531.919	12445.28
532.268	13060.31
532.616	14137.78
532.964	14582
533.312	14606.93
533.66	14453.31
534.008	14467.28
534.356	14494.72
534.704	14404.41
535.052	13926.87
535.4	13394.68
535.748	12739.97
536.095	12098.15
536.443	12022.68
536.791	12549.77
537.139	13165.97
537.486	13837.34
537.834	13913.36
538.181	14059.34
538.529	14050.59
538.876	14053.34
539.223	13677.96
539.571	13114.03
539.918	13128.83
540.265	13632.4
540.613	14077.58
540.96	13774.05
541.307	13630.64
541.654	13559.03
542.001	13731.26
542.348	13708.24
542.695	13634.15
543.042	14114.8
543.388	14365.98
543.735	14435.35
544.082	14477.51
544.429	14430.36
544.775	13817.83
545.122	13093.45
545.469	12542.22
545.815	12631.81
546.162	12841.78
546.508	13440.29
546.854	14331.29
547.201	15436.3
547.547	15827.72
547.893	15265.26
548.24	13868.85
548.586	12555.06
548.932	12192.25
549.278	12029.75
549.624	12235.62
549.97	12060.8
550.316	11594.24
550.662	11432.69
551.008	12282.26
551.353	14007.36
551.699	14802.06
552.045	14206.22
552.391	13409.72
552.736	13250.76
553.082	13198.09
553.427	12871.69
553.773	12063.83
554.118	11929
554.464	12583.75
554.809	13419.99
555.154	14071.33
555.5	14042.6
555.845	13037.46
556.19	12393.9
556.535	11755.38
556.88	12109.5
557.225	12184.93
557.57	11812.01
557.915	11283.92
558.26	10963.07
558.605	10946.05
558.95	11276.06
559.295	12607.91
559.639	13702.73
559.984	14801.31
560.329	15045.58
560.673	15128.94
561.018	14196.23
561.362	13390.67
561.707	12832.48
562.051	12958.86
562.395	13276.09
562.74	14033.35
563.084	14185.24
563.428	14919.62
563.772	14826.47
564.117	14992.06
564.461	15072.96
564.805	14700.4
565.149	15003.02
565.493	14975.14
565.836	15510.6
566.18	15909.87
566.524	18129.24
566.868	19329.57
567.212	20084.93
567.555	20431.11
567.899	22488.82
568.242	24413.19
568.586	27704.98
568.929	31721.64
569.273	35728.83
569.616	35933.66
569.96	37267.28
570.303	39718.42
570.646	40806.25
570.989	43360.59
571.333	42916.33
571.676	40267.93
572.019	34179.26
572.362	37302.66
572.705	43175.01
573.048	48222.17
573.391	51493.84
573.733	53093.6
574.076	54335.05
574.419	52138.81
574.762	46992.77
575.104	41454.35
575.447	40999.9
575.789	46241.45
576.132	52289.2
576.474	52956.4
576.817	60969.96
577.159	68502.32
577.501	68661.82
577.844	61319.79
578.186	49342.99
578.528	44663.17
578.87	44440.92
579.212	46714.24
579.554	50410.75
579.896	49758.05
580.238	54138.94
580.58	68675.8
580.922	68675.8
581.264	68675.8
581.606	68675.8
581.947	64301.72
582.289	53330.14
582.631	43416.14
582.972	37627.05
583.314	37973.57
583.655	39867.05
583.997	47258.11
584.338	55044.51
584.679	59802.48
585.021	58123.41
585.362	51052.32
585.703	44180.74
586.044	42719.03
586.385	47336.45
586.726	52139.36
587.067	49634.41
587.408	44209.61
587.749	40414.69
588.09	36983.81
588.431	33314.17
588.772	30304.18
589.113	31199.09
589.453	31581.75
589.794	29999.61
