Data from FLMS007011_11-20-19-029.txt Node
Date: Thu Apr 21 11:20:19 MDT 2016
User: lab_user
Spectrometer: FLMS00701
Autoset integration time: false
Trigger mode: 0
Integration Time (sec): 5.000000E-3
Scans to average: 10
Electric dark correction enabled: true
Nonlinearity correction enabled: true
Boxcar width: 0
XAxis mode: Wavelengths
Stop averaging: false
Number of Pixels in Spectrum: 2048
>>>>>Begin Spectral Data<<<<<
178.41	23.91
178.791	23.91
179.172	23.91
179.553	-52.09
179.934	-56.95
180.316	-66.68
180.697	-67.25
181.078	-59.24
181.459	-42.37
181.84	-34.37
182.221	-21.8
182.602	-27.8
182.983	19.06
183.364	20.2
183.744	51.33
184.125	74.45
184.506	74.45
184.887	116.96
185.268	159.72
185.648	152.6
186.029	150.89
186.41	184.8
186.791	246.04
187.171	256
187.552	331.39
187.932	352.15
188.313	370.91
188.694	402.73
189.074	400.74
189.455	441.92
189.835	452.42
190.216	481.37
190.596	456.4
190.977	459.8
191.357	460.94
191.737	506.9
192.118	492.15
192.498	557.66
192.878	512.29
193.258	529.87
193.639	517.68
194.019	550.85
194.399	534.69
194.779	549.72
195.159	561.06
195.54	564.74
195.92	568.14
196.3	590.81
196.68	587.13
197.06	560.77
197.44	571.54
197.82	569.56
198.2	584.58
198.58	572.39
198.959	576.64
199.339	601.86
199.719	591.09
200.099	615.45
200.479	591.09
200.858	577.78
201.238	590.24
201.618	581.18
201.998	583.44
202.377	571.26
202.757	568.71
203.136	573.81
203.516	595.63
203.896	632.44
204.275	595.34
204.655	634.43
205.034	636.13
205.414	636.97
205.793	617.72
206.172	650
206.552	659.62
206.931	611.21
207.31	667.26
207.69	652.54
208.069	676.6
208.448	670.66
208.827	712.25
209.207	675.75
209.586	679.71
209.965	693.86
210.344	693.01
210.723	762.29
211.102	764.27
211.481	752.4
211.86	780.66
212.239	782.64
212.618	756.92
212.997	804.11
213.376	809.75
213.755	810.32
214.134	808.06
214.513	848.16
214.891	863.12
215.27	871.87
215.649	897.26
216.028	914.18
216.406	948.02
216.785	942.66
217.164	926.59
217.542	1009.45
217.921	1004.66
218.3	992.54
218.678	1047.74
219.057	1069.42
219.435	1081.52
219.814	1105.43
220.192	1114.71
220.57	1145.08
220.949	1193.14
221.327	1223.19
221.705	1230.78
222.084	1299.54
222.462	1281.86
222.84	1299.26
223.218	1347.78
223.597	1404.67
223.975	1455.63
224.353	1460.95
224.731	1479.71
225.109	1523.63
225.487	1616.71
225.865	1664.74
226.243	1656.36
226.621	1668.64
226.999	1767.39
227.377	1784.68
227.755	1846.52
228.133	1879.65
228.511	1936.42
228.889	2002.86
229.266	2031.76
229.644	2095.07
230.022	2134.75
230.4	2173.02
230.777	2219.04
231.155	2266.96
231.533	2303.51
231.91	2362.17
232.288	2411.94
232.665	2477.69
233.043	2510.27
233.42	2564.09
233.798	2614.83
234.175	2715.94
234.553	2727.23
234.93	2794.09
235.307	2839.19
235.685	2876.56
236.062	2972.12
236.439	2958.13
236.816	3057.97
237.194	3067.57
237.571	3130.86
237.948	3228.3
238.325	3299.39
238.702	3322.35
239.079	3355.13
239.456	3397.18
239.833	3449.57
240.21	3486.67
240.587	3533.82
240.964	3654.73
241.341	3663.44
241.718	3777.37
242.095	3816.48
242.472	3801.55
242.849	3932.37
243.225	3994.99
243.602	3964.37
243.979	4010.71
244.356	4126.87
244.732	4150.41
245.109	4219.63
245.486	4255.57
245.862	4259.35
246.239	4380.29
246.615	4408.07
246.992	4479.51
247.368	4499.99
247.745	4594.77
248.121	4646.96
248.497	4607.14
248.874	4712.29
249.25	4842.8
249.626	4900.21
250.003	4863.73
250.379	4953.29
250.755	5044.1
251.131	5051.86
251.507	5060.7
251.884	5118.5
252.26	5165.3
252.636	5184.02
253.012	5256.7
253.388	5308.77
253.764	5371.22
254.14	5419.49
254.516	5411.49
254.892	5477.07
255.268	5528.48
255.643	5550.85
256.019	5569.75
256.395	5563.63
256.771	5713.66
257.147	5691.59
257.522	5736.78
257.898	5771.32
258.274	5766.8
258.649	5790.7
259.025	5824.96
259.4	5859.73
259.776	5942.23
260.151	5867.69
260.527	5974.3
260.902	6010.08
261.278	6042.4
261.653	6009.55
262.028	6050.88
262.404	6068.62
262.779	6099.6
263.154	6103.83
263.53	6194.32
263.905	6148.29
264.28	6163.37
264.655	6173.43
265.03	6145.91
265.405	6196.17
265.781	6176.34
266.156	6213.36
266.531	6219.18
266.906	6285.78
267.281	6300.84
267.655	6217.33
268.03	6217.59
268.405	6285.25
268.78	6276.01
269.155	6340.46
269.53	6280.5
269.904	6315.37
270.279	6337.29
270.654	6263.06
271.029	6283.4
271.403	6351.02
271.778	6327.52
272.152	6286.05
272.527	6283.14
272.901	6331.22
273.276	6361.32
273.65	6356.83
274.025	6367.65
274.399	6307.44
274.774	6325.93
275.148	6284.99
275.522	6341.78
275.897	6301.63
276.271	6277.59
276.645	6368.71
277.019	6421.23
277.393	6342.31
277.768	6281.29
278.142	6314.84
278.516	6314.58
278.89	6287.63
279.264	6311.67
279.638	6284.46
280.012	6267.55
280.386	6199.35
280.76	6296.88
281.133	6268.61
281.507	6264.11
281.881	6271.51
282.255	6252.75
282.629	6247.46
283.002	6165.76
283.376	6192.21
283.75	6136.92
284.123	6232.13
284.497	6123.16
284.87	6180.83
285.244	6149.35
285.618	6121.3
285.991	6041.34
286.364	6071.53
286.738	6071
287.111	6039.49
287.485	5991.8
287.858	5942.49
288.231	5938.25
288.605	5926.32
288.978	5867.42
289.351	5857.61
289.724	5811.15
290.097	5845.93
290.47	5752.99
290.843	5758.03
291.217	5692.39
291.59	5612.33
291.963	5590.78
292.336	5548.99
292.708	5572.41
293.081	5509.3
293.454	5555.91
293.827	5489.32
294.2	5361.88
294.573	5395.76
294.945	5370.68
295.318	5321.85
295.691	5239.6
296.064	5248.15
296.436	5222.77
296.809	5169.05
297.181	5210.75
297.554	5137.22
297.926	5102.98
298.299	5077.02
298.671	5111.01
299.044	5073.54
299.416	5020
299.788	5058.82
300.161	4932.92
300.533	4931.84
300.905	5000.18
301.278	4994.28
301.65	4950.34
302.022	4928.9
302.394	4930.77
302.766	4877.68
303.138	4820.79
303.51	4822.67
303.882	4818.64
304.254	4777.3
304.626	4776.22
304.998	4712.02
305.37	4698.58
305.742	4651.8
306.114	4613.87
306.485	4622.75
306.857	4625.44
307.229	4603.38
307.601	4544.43
307.972	4528.27
308.344	4535.81
308.716	4533.66
309.087	4624.09
309.459	4646.15
309.83	4739.69
310.202	4784.01
310.573	4824.01
310.945	4992.41
311.316	5092.55
311.687	5256.7
312.059	5383.49
312.43	5532.21
312.801	5703.82
313.172	5896.08
313.544	6012.2
313.915	6197.49
314.286	6301.1
314.657	6403.29
315.028	6555.7
315.399	6593.37
315.77	6675.52
316.141	6718.15
316.512	6703.41
316.883	6679.47
317.254	6622.08
317.625	6542.53
317.996	6603.65
318.366	6552.8
318.737	6512.48
319.108	6545.16
319.478	6550.17
319.849	6742.61
320.22	7013.93
320.59	7255.51
320.961	7488.96
321.331	7905.73
321.702	8234.09
322.072	8522.96
322.443	8822.76
322.813	9248.7
323.184	9510.31
323.554	9819.81
323.924	10046.8
324.295	10270.1
324.665	10462.72
325.035	10657.12
325.405	10742.13
325.775	10860.67
326.145	11017.98
326.515	11063.44
326.886	11126.65
327.256	11244.89
327.626	11113.96
327.995	11185.53
328.365	11198.47
328.735	11134.27
329.105	10932.1
329.475	10780.04
329.845	10473.43
330.215	10664.5
330.584	10921.17
330.954	11339.72
331.324	11903.26
331.693	12295.65
332.063	12454.38
332.432	12512.79
332.802	12262.37
333.171	11996.96
333.541	11352.39
333.91	11001.97
334.28	10724.83
334.649	10537.15
335.018	10336.46
335.388	10091.03
335.757	9952.67
336.126	9597.82
336.495	9383.42
336.865	9190.81
337.234	8806.75
337.603	8606.52
337.972	8356.2
338.341	8217.22
338.71	8045.6
339.079	7910.67
339.448	7905.21
339.817	7820.89
340.186	7751.87
340.554	7734.42
340.923	7849.26
341.292	7758.12
341.661	7759.69
342.029	7903.65
342.398	7831.3
342.767	7732.07
343.135	7808.13
343.504	7735.98
343.872	7697.41
344.241	7577.97
344.609	7577.97
344.978	7469.89
345.346	7438.29
345.715	7391.25
346.083	7329.02
346.451	7306.53
346.82	7246.87
347.188	7207.08
347.556	7200.01
347.924	7153.65
348.292	7101.25
348.66	7101.77
349.028	7049.08
349.396	7046.19
349.764	7091.55
350.132	7124.57
350.5	7108.85
350.868	7100.2
351.236	7223.57
351.604	7177.23
351.972	7302.61
352.34	7339.22
352.707	7369.81
353.075	7432.02
353.443	7492.35
353.81	7473.03
354.178	7659.87
354.545	7724.77
354.913	7828.44
355.28	7909.63
355.648	8063.27
356.015	8122.75
356.383	8214.11
356.75	8284.4
357.117	8404.13
357.485	8513.13
357.852	8542.37
358.219	8684.32
358.586	8789.97
358.954	8830.24
359.321	8970.31
359.688	9062.83
360.055	9191.06
360.422	9256.67
360.789	9389.85
361.156	9435.32
361.523	9553.17
361.89	9623.22
362.256	9779.08
362.623	9864.11
362.99	9862.06
363.357	10000.77
363.724	10087.2
364.09	10139.59
364.457	10168.72
364.823	10266.78
365.19	10400.75
365.557	10576.38
365.923	10557.53
366.29	10606.19
366.656	10724.83
367.022	10833.46
367.389	10739.84
367.755	10784.62
368.121	10911.26
368.488	10898.55
368.854	10937.44
369.22	10958.53
369.586	10984.44
369.952	11022.8
370.318	11010.36
370.684	11169.54
371.051	11173.86
371.416	11248.44
371.782	11405.11
372.148	11439.31
372.514	11496.55
372.88	11557.82
373.246	11565.92
373.612	11734.17
373.977	11784.23
374.343	12046.94
374.709	12233.38
375.074	12111.04
375.44	12085.05
375.806	12086.06
376.171	12279.52
376.537	12329.42
376.902	12360.42
377.268	12538.47
377.633	12558.11
377.998	12757.85
378.364	13025.69
378.729	13092.72
379.094	13016.4
379.459	12784.5
379.825	12838.54
380.19	12813.41
380.555	12625.3
380.92	12467.22
381.285	12631.59
381.65	12715.85
382.015	12836.03
382.38	12790.28
382.745	12622.28
383.11	12623.03
383.474	12712.84
383.839	12718.62
384.204	12736.22
384.569	12715.35
384.933	12630.58
385.298	12724.15
385.663	12795.06
386.027	12887.8
386.392	13019.16
386.756	13100.75
387.121	13259.82
387.485	13431.04
387.849	13670.98
388.214	13344.82
388.578	13213.17
388.942	13103.51
389.307	13265.34
389.671	13258.57
390.035	13313.74
390.399	13475.39
390.763	13561.31
391.127	13785.84
391.492	14259.93
391.856	14574.05
392.219	14916.65
392.583	14794.12
392.947	14263.42
393.311	13974.14
393.675	13952.39
394.039	13891.89
394.403	13968.64
394.766	13818.36
395.13	13844.62
395.494	13814.11
395.857	14008.38
396.221	14138.81
396.584	14468.8
396.948	14776.18
397.311	15280.2
397.675	15626.14
398.038	15583.17
398.401	15193.9
398.765	14776.68
399.128	14501.73
399.491	14293.13
399.854	14243.2
400.218	14326.58
400.581	14228.97
400.944	14132.32
401.307	13861.13
401.67	13988.39
402.033	13891.89
402.396	13943.64
402.759	14046.12
403.122	14212.74
403.485	14235.46
403.847	14400.7
404.21	14777.42
404.573	14866.1
404.936	14906.45
405.298	14655.07
405.661	14330.82
406.023	13909.64
406.386	13906.39
406.749	13719.28
407.111	13820.36
407.473	14197.75
407.836	14529.16
408.198	14642.11
408.561	14547.12
408.923	14571.8
409.285	14591.5
409.647	14424.9
410.009	14182.52
410.372	14209.49
410.734	14168.28
411.096	14140.56
411.458	14270.41
411.82	14518.44
412.182	14658.56
412.544	14659.8
412.906	14775.43
413.267	14766.46
413.629	14394.96
413.991	14343.55
414.353	14290.63
414.714	14073.86
415.076	14153.3
415.438	14278.9
415.799	14405.69
416.161	14140.81
416.522	14033.63
416.884	13984.39
417.245	14013.88
417.607	13981.14
417.968	13908.14
418.329	14082.35
418.691	14204.5
419.052	14175.03
419.413	14326.83
419.774	14512.7
420.135	15214.3
420.497	15686.74
420.858	16192.9
421.219	16187.94
421.58	15721.25
421.941	15305.32
422.302	14885.78
422.662	14739.3
423.023	14518.94
423.384	14537.14
423.745	14651.83
424.106	14785.15
424.466	14825
424.827	14428.89
425.187	14075.11
425.548	13826.61
425.909	13709.27
426.269	13942.14
426.63	14030.13
426.99	14298.37
427.35	14246.2
427.711	14366.51
428.071	14589.75
428.431	15125.98
428.792	16228.35
429.152	17272.16
429.512	17413.03
429.872	17178.71
430.232	16636.38
430.592	15751.05
430.952	14847.92
431.312	14181.27
431.672	13822.86
432.032	13798.6
432.392	14299.62
432.752	15702.38
433.111	16541.54
433.471	16293.78
433.831	14899.72
434.19	14779.67
434.55	14944.54
434.91	14602.47
435.269	14883.04
435.629	15031.42
435.988	15160.57
436.348	14735.32
436.707	14295.13
437.066	14273.16
437.426	14555.35
437.785	14617.43
438.144	14830.98
438.503	14529.16
438.862	14373
439.222	14198
439.581	14039.37
439.94	14280.4
440.299	15425.14
440.658	16200.33
441.017	16360.7
441.376	15875.9
441.734	15610.99
442.093	15521.06
442.452	15763.46
442.811	15986.07
443.169	15996.98
443.528	15461.18
443.887	15395.07
444.245	15321.98
444.604	14956.49
444.962	14727.09
445.321	14711.39
445.679	14890.76
446.038	15014.99
446.396	14733.07
446.754	14246.95
447.112	14165.04
447.471	14005.64
447.829	13836.87
448.187	13952.64
448.545	14062.61
448.903	13981.14
449.261	13905.39
449.619	13644.19
449.977	13622.41
450.335	13239.25
450.693	13211.16
451.051	13190.59
451.409	13158.47
451.766	13134.13
452.124	12799.08
452.482	12463.69
452.839	12300.69
453.197	12057.8
453.555	12135.27
453.912	12160.49
454.27	12413.83
454.627	12845.83
454.984	12778.21
455.342	12342.78
455.699	12203.12
456.056	12241.19
456.414	12524.88
456.771	12950.6
457.128	12988.78
457.485	13166
457.842	13028.71
458.199	13136.14
458.556	13317.25
458.913	13229.22
459.27	13440.07
459.627	13138.4
459.984	13167.51
460.341	13446.58
460.697	12962.41
461.054	12264.14
461.411	11684.35
461.767	11434.5
462.124	11475.53
462.481	11857.53
462.837	12121.89
463.194	12725.66
463.55	12553.83
463.907	13278.38
464.263	13598.62
464.619	14145.56
464.976	14614.44
465.332	14688.72
465.688	13854.88
466.044	12878.25
466.4	12432.97
466.756	12229.85
467.112	12259.85
467.468	12267.16
467.824	12044.92
468.18	11701.29
468.536	11628.69
468.892	11360
469.248	11192.89
469.604	11117.01
469.959	11108.12
470.315	11123.35
470.671	11170.56
471.026	11244.89
471.382	11536.05
471.737	11784.74
472.093	12024.98
472.448	12604.16
472.804	12772.43
473.159	13103.51
473.514	13029.46
473.87	13195.86
474.225	14040.62
474.58	14689.96
474.935	14565.57
475.29	14155.05
475.645	14012.88
476	13914.64
476.355	13731.54
476.71	13615.4
477.065	14499.73
477.42	14978.15
477.775	14944.79
478.13	14633.63
478.485	14778.92
478.839	15119.02
479.194	15997.73
479.549	16508.6
479.903	16552.68
480.258	16099.91
480.612	16499.93
480.967	17421.43
481.321	17290.2
481.675	16654.45
482.03	15945.13
482.384	15775.62
482.738	16094.21
483.093	16324.02
483.447	17068.92
483.801	18129.02
484.155	18749.59
484.509	22690.6
484.863	51072.24
485.217	63959.83
485.571	63364.44
485.925	39649.48
486.279	28171.53
486.632	24105.77
486.986	20806.44
487.34	18082.88
487.694	17091.92
488.047	16730.7
488.401	16957.62
488.754	16589.09
489.108	16218.43
489.461	15905.93
489.815	15618.19
490.168	16059.99
490.522	16084.29
490.875	15945.63
491.228	15832.47
491.581	16042.38
491.935	15966.47
492.288	15860.27
492.641	16018.07
492.994	16012.36
493.347	16428.58
493.7	16494.48
494.053	16332.69
494.406	15915.6
494.759	15199.13
495.111	16187.69
495.464	17585.71
495.817	18427.19
496.169	17518.28
496.522	16041.88
496.875	14845.43
497.227	14670.77
497.58	14633.88
497.932	15086.67
498.285	15163.3
498.637	16045.6
498.989	16535.84
499.342	16413.47
499.694	15614.97
500.046	15197.38
500.398	15839.42
500.751	16392.66
501.103	16397.86
501.455	16324.02
501.807	16412.73
502.159	16289.08
502.511	16383.24
502.862	16337.65
503.214	15919.57
503.566	15163.3
503.918	14799.35
504.27	14880.8
504.621	14857.88
504.973	14708.9
505.324	14876.06
505.676	15320.98
506.027	15440.05
506.379	14352.78
506.73	13866.63
507.082	14225.47
507.433	14585.02
507.784	14857.14
508.136	14478.28
508.487	14160.79
508.838	13859.13
509.189	13921.14
509.54	14305.11
509.891	13897.89
510.242	13982.39
510.593	13786.34
510.944	13563.32
511.295	13101.51
511.646	12738.24
511.996	12918.95
512.347	13122.34
512.698	13262.83
513.049	12974.71
513.399	12832.51
513.75	12954.37
514.1	12524.12
514.451	11966.91
514.801	11907.05
515.152	12274.22
515.502	12608.19
515.852	12798.83
516.202	12869.96
516.553	12530.16
516.903	12109.78
517.253	11697.75
517.603	11694.97
517.953	11783.98
518.303	12401.99
518.653	12644.92
519.003	12377.55
519.353	11597.31
519.703	11098.98
520.052	10911.51
520.402	11143.66
520.752	11458.31
521.102	11147.97
521.451	10886.6
521.801	10972.25
522.15	11178.93
522.5	11407.64
522.849	11309.3
523.199	11589.46
523.548	11790.55
523.897	11543.65
524.246	11209.38
524.596	10883.8
524.945	10997.65
525.294	11052.01
525.643	11137.31
525.992	11117.01
526.341	11244.38
526.69	11058.61
527.039	10908.46
527.388	10618.16
527.737	11325.53
528.086	12214.97
528.434	12683.66
528.783	12194.54
529.132	11702.31
529.48	11345.8
529.829	11198.72
530.177	11104.06
530.526	10925.49
530.874	11131.22
531.223	11057.34
531.571	11024.83
531.919	11074.86
532.268	11805.72
532.616	12607.68
532.964	13106.02
533.312	13158.22
533.66	12925.73
534.008	12939.3
534.356	13049.29
534.704	12869.2
535.052	12552.57
535.4	11967.16
535.748	11381.03
536.095	10856.09
536.443	10753.84
536.791	11181.47
537.139	11698.51
537.486	12307.49
537.834	12486.86
538.181	12616.99
538.529	12471.5
538.876	12506.25
539.223	12231.36
539.571	11721.53
539.918	11746.81
540.265	12127.7
540.613	12660.77
540.96	12338.24
541.307	12231.87
541.654	12083.29
542.001	12226.07
542.348	12199.59
542.695	12161
543.042	12536.46
543.388	12799.58
543.735	12956.13
544.082	12987.27
544.429	12920.46
544.775	12407.02
545.122	11642.61
545.469	11219.78
545.815	11332.37
546.162	11448.43
546.508	11948.73
546.854	12889.3
547.201	13905.14
547.547	14234.96
547.893	13528.5
548.24	12288.09
548.586	11204.56
548.932	10862.19
549.278	10782.59
549.624	11024.83
549.97	10820.23
550.316	10296.91
550.662	10195.79
551.008	11012.13
551.353	12528.15
551.699	13288.91
552.045	12639.89
552.391	11968.93
552.736	11800.16
553.082	11731.14
553.427	11493.51
553.773	10760.45
554.118	10541.22
554.464	11165.23
554.809	12068.9
555.154	12585.54
555.5	12513.3
555.845	11653.23
556.19	10968.95
556.535	10510.64
556.88	10852.78
557.225	10971.74
557.57	10601.09
557.915	10022.51
558.26	9806.74
558.605	9780.61
558.95	10147
559.295	11322.74
559.639	12216.99
559.984	13228.97
560.329	13404.98
560.673	13357.61
561.018	12570.69
561.362	12059.56
561.707	11366.08
562.051	11541.62
562.395	11800.92
562.74	12456.64
563.084	12667.31
563.428	13372.15
563.772	13223.45
564.117	13281.14
564.461	13440.57
564.805	13136.89
565.149	13355.6
565.493	13352.34
565.836	13763.82
566.18	14107.59
566.524	16203.81
566.868	17355.94
567.212	18025.89
567.555	18228.18
567.899	20034.78
568.242	21729.28
568.586	24747.67
568.929	28103.23
569.273	31830.78
569.616	32183.56
569.96	33029.66
570.303	35188.91
570.646	36285.86
570.989	38476.53
571.333	38090.7
571.676	35507.27
572.019	29891.65
572.362	33015.61
572.705	38415.11
573.048	42992.31
573.391	45841.13
573.733	47336.74
574.076	48435.56
574.419	46237.41
574.762	41434.72
575.104	36406.24
575.447	36098.02
575.789	40890.79
576.132	46779.25
576.474	47344.93
576.817	55032.42
577.159	61860.67
577.501	62261.76
577.844	54840.3
578.186	43130.28
578.528	38869.97
578.87	38794.39
579.212	41258.57
579.554	44761.33
579.896	44221.43
580.238	48363.09
580.58	63086.89
580.922	68682.85
581.264	68682.85
581.606	64592.22
581.947	57316.69
582.289	46532.99
582.631	37426.39
582.972	32605.19
583.314	33269.08
583.655	35411.19
583.997	42181.18
584.338	49430.77
584.679	54315.4
585.021	52161.08
585.362	44981.92
585.703	38499.32
586.044	37169.59
586.385	41796.95
586.726	46436.6
587.067	43968.27
587.408	38925.73
587.749	35350.68
588.09	32480.73
588.431	29170.13
588.772	26493.88
589.113	27462.08
589.453	27904.23
589.794	26342.42
590.134	23667.04
