Data from FLMS007011_12-39-41-364.txt Node
Date: Thu Apr 21 12:39:41 MDT 2016
User: lab_user
Spectrometer: FLMS00701
Autoset integration time: false
Trigger mode: 0
Integration Time (sec): 5.000000E-3
Scans to average: 10
Electric dark correction enabled: true
Nonlinearity correction enabled: true
Boxcar width: 0
XAxis mode: Wavelengths
Stop averaging: false
Number of Pixels in Spectrum: 2048
>>>>>Begin Spectral Data<<<<<
178.41	39.67
178.791	39.67
179.172	39.67
179.553	-40.04
179.934	-67.2
180.316	-67.2
180.697	-31.18
181.078	-67.2
181.459	-60.34
181.84	-11.75
182.221	-24.61
182.602	-51.76
182.983	-2.6
183.364	28.25
183.744	38.53
184.125	84.48
184.506	57.65
184.887	95.61
185.268	135.82
185.648	173.74
186.029	170.32
186.41	220.74
186.791	222.74
187.171	274.83
187.552	344.8
187.932	363.85
188.313	379.2
188.694	407.04
189.074	411.58
189.455	420.39
189.835	416.98
190.216	454.46
190.596	471.77
190.977	474.89
191.357	474.32
191.737	495.6
192.118	507.8
192.498	518.86
192.878	529.07
193.258	541.83
193.639	550.9
194.019	554.02
194.399	528.22
194.779	535.59
195.159	545.23
195.54	570.46
195.92	561.67
196.3	538.99
196.68	523.4
197.06	534.17
197.44	541.26
197.82	565.92
198.2	555.72
198.58	574.42
198.959	576.69
199.339	565.64
199.719	554.87
200.099	556
200.479	548.07
200.858	567.06
201.238	562.8
201.618	534.46
201.998	548.92
202.377	552.6
202.757	552.03
203.136	573.01
203.516	553.45
203.896	547.21
204.275	545.23
204.655	568.47
205.034	538.43
205.414	555.72
205.793	553.17
206.172	551.47
206.552	565.07
206.931	555.15
207.31	567.91
207.69	576.12
208.069	592.56
208.448	576.69
208.827	553.17
209.207	583.49
209.586	578.67
209.965	593.41
210.344	538.99
210.723	610.97
211.102	588.31
211.481	627.11
211.86	603.32
212.239	618.05
212.618	612.1
212.997	643.53
213.376	645.8
213.755	662.22
214.134	650.04
214.513	654.01
214.891	699
215.27	670.71
215.649	694.76
216.028	679.19
216.406	689.1
216.785	709.18
217.164	702.96
217.542	723.61
217.921	739.16
218.3	736.05
218.678	766.29
219.057	756.97
219.435	738.31
219.814	791.16
220.192	772.51
220.57	806.41
220.949	831.83
221.327	836.06
221.705	854.7
222.084	900.13
222.462	872.48
222.84	914.23
223.218	964.7
223.597	933.97
223.975	989.49
224.353	1023.86
224.731	1056.23
225.109	1086.06
225.487	1101.54
225.865	1107.73
226.243	1187.57
226.621	1209.2
226.999	1256.37
227.377	1260.86
227.755	1287.52
228.133	1355.95
228.511	1366.32
228.889	1406.67
229.266	1394.07
229.644	1496.26
230.022	1542.69
230.4	1555.83
230.777	1595.24
231.155	1636.58
231.533	1690.74
231.91	1755.17
232.288	1805.62
232.665	1826.52
233.043	1897.24
233.42	1924.22
233.798	1981.23
234.175	2037.64
234.553	2095.39
234.93	2132.02
235.307	2151.44
235.685	2215.76
236.062	2301.06
236.439	2318.22
236.816	2404.24
237.194	2424.97
237.571	2515.29
237.948	2532.4
238.325	2585.37
238.702	2632.79
239.079	2680.18
239.456	2751.22
239.833	2794.96
240.21	2824.66
240.587	2915.62
240.964	2951.58
241.341	3017.16
241.718	3069.81
242.095	3109.27
242.472	3216.86
242.849	3237.37
243.225	3299.99
243.602	3316.11
243.979	3360.36
244.356	3410.05
244.732	3506.61
245.109	3509.61
245.486	3601.97
245.862	3660.49
246.239	3680.35
246.615	3688.24
246.992	3826.58
247.368	3825.49
247.745	3876.53
248.121	3982.57
248.497	3998.29
248.874	4063.57
249.25	4080.9
249.626	4153.16
250.003	4209.13
250.379	4243.45
250.755	4267.77
251.131	4361.45
251.507	4396.25
251.884	4425.92
252.26	4433.2
252.636	4563.86
253.012	4579.74
253.388	4605.31
253.764	4674.97
254.14	4689.75
254.516	4754.78
254.892	4719.86
255.268	4781.1
255.643	4868.33
256.019	4892.74
256.395	4882.01
256.771	4963.52
257.147	5033.43
257.522	5031.02
257.898	5102.49
258.274	5120.15
258.649	5110.25
259.025	5182.72
259.4	5150.1
259.776	5245.79
260.151	5289.06
260.527	5260.22
260.902	5305.61
261.278	5337.91
261.653	5353.92
262.028	5404.07
262.404	5450.99
262.779	5442.73
263.154	5486.17
263.53	5527.99
263.905	5529.32
264.28	5571.13
264.655	5542.37
265.03	5535.72
265.405	5600.67
265.781	5590.82
266.156	5646.43
266.531	5671.16
266.906	5646.16
267.281	5659.46
267.655	5667.44
268.03	5659.73
268.405	5680.2
268.78	5680.74
269.155	5762.06
269.53	5762.86
269.904	5749.04
270.279	5759.67
270.654	5761
271.029	5827.13
271.403	5799.25
271.778	5762.33
272.152	5797.39
272.527	5769.23
272.901	5847.03
273.276	5869.33
273.65	5895.06
274.025	5911.77
274.399	5891.08
274.774	5950.76
275.148	5954.73
275.522	6004.83
275.897	5944.13
276.271	5976.2
276.645	6033.18
277.019	6034.23
277.393	6082.7
277.768	6051.45
278.142	6050.39
278.516	5999
278.89	6041.92
279.264	6074.49
279.638	6132.46
280.012	6134.05
280.386	6078.2
280.76	6111.29
281.133	6086.93
281.507	6144.63
281.881	6101.5
282.255	6160.77
282.629	6150.72
283.002	6119.49
283.376	6167.12
283.75	6159.45
284.123	6192.78
284.497	6183.26
284.87	6174.79
285.244	6247.51
285.618	6230.06
285.991	6134.05
286.364	6176.91
286.738	6179.29
287.111	6243.28
287.485	6204.94
287.858	6172.94
288.231	6185.11
288.605	6215.26
288.978	6174
289.351	6117.91
289.724	6102.29
290.097	6140.93
290.47	6135.11
290.843	6096.47
291.217	6091.97
291.59	6052.25
291.963	6148.34
292.336	6115.52
292.708	6035.56
293.081	6018.87
293.454	6043.51
293.827	5999.53
294.2	5990.78
294.573	5951.82
294.945	6016.22
295.318	6014.9
295.691	6000.32
296.064	5945.19
296.436	5929.81
296.809	5959.24
297.181	5939.88
297.554	5910.71
297.926	5927.42
298.299	5932.19
298.671	5939.62
299.044	5940.41
299.416	5891.88
299.788	5860.04
300.161	5884.19
300.533	5868
300.905	5911.51
301.278	5909.39
301.65	5887.9
302.022	5884.19
302.394	5848.63
302.766	5822.08
303.138	5781.45
303.51	5825
303.882	5749.04
304.254	5748.25
304.626	5814.38
304.998	5755.42
305.37	5703.07
305.742	5770.03
306.114	5746.65
306.485	5723
306.857	5740.01
307.229	5705.46
307.601	5648.29
307.972	5672.76
308.344	5712.64
308.716	5704.66
309.087	5796.06
309.459	5744.79
309.83	5807.48
310.202	5802.7
310.573	5881.8
310.945	5930.34
311.316	5963.48
311.687	5928.48
312.059	5988.4
312.43	5997.94
312.801	6025.76
313.172	5964.28
313.544	5953.67
313.915	5952.35
314.286	5917.34
314.657	5894
315.028	5843.05
315.399	5803.76
315.77	5772.95
316.141	5715.56
316.512	5682.07
316.883	5686.05
317.254	5714.76
317.625	5710.24
317.996	5862.16
318.366	5928.48
318.737	5951.55
319.108	6090.64
319.478	6215.26
319.849	6395.94
320.22	6589.73
320.59	6747.39
320.961	6909.53
321.331	7107.32
321.702	7237.75
322.072	7391.03
322.443	7596.28
322.813	7753.74
323.184	7875.85
323.554	7960.13
323.924	8109.29
324.295	8257.21
324.665	8298.18
325.035	8500.49
325.405	8668.09
325.775	8770.13
326.145	8862.8
326.515	8982.47
326.886	9054.12
327.256	9142.46
327.626	9128.3
327.995	9051.28
328.365	9047.68
328.735	9011.6
329.105	8876.74
329.475	8983.76
329.845	9232.28
330.215	9726.08
330.584	10113.57
330.954	10586.11
331.324	10867.32
331.693	11011.67
332.063	11034.02
332.432	10986.52
332.802	10762.79
333.171	10555.28
333.541	10230.83
333.91	10254.06
334.28	10249.98
334.649	10163.14
335.018	10189.96
335.388	10169.01
335.757	10166.72
336.126	10140.4
336.495	10184.6
336.865	10162.88
337.234	10056.56
337.603	10162.12
337.972	10130.69
338.341	10137.33
338.71	10159.56
339.079	10096.95
339.448	10133.75
339.817	10113.31
340.186	10054.51
340.554	10005.93
340.923	10088.77
341.292	9964.74
341.661	9970.11
342.029	10039.43
342.398	9907.67
342.767	9892.83
343.135	9871.83
343.504	9809.35
343.872	9791.67
344.241	9766.05
344.609	9630.44
344.978	9602.74
345.346	9672.75
345.715	9503.42
346.083	9423.81
346.451	9371.39
346.82	9351.86
347.188	9362.14
347.556	9204.23
347.924	9192.14
348.292	9056.95
348.66	8995.1
349.028	8951.79
349.396	8853.51
349.764	8874.41
350.132	8706.33
350.5	8694.96
350.868	8626.47
351.236	8583.8
351.604	8494.54
351.972	8535.17
352.34	8381.9
352.707	8385.78
353.075	8341.99
353.443	8154.98
353.81	8110.59
354.178	8125.13
354.545	8088.51
354.913	8064.61
355.28	8005.89
355.648	7983.01
356.015	7995.75
356.383	8014.72
356.75	7950.77
357.117	7939.59
357.485	7911.49
357.852	7881.05
358.219	7901.09
358.586	7899.79
358.954	7890.42
359.321	7869.08
359.688	7780.31
360.055	7871.43
360.422	7870.12
360.789	7869.08
361.156	7895.1
361.523	7826.66
361.89	7853.21
362.256	7979.89
362.623	7966.37
362.99	7962.47
363.357	7946.35
363.724	7987.17
364.09	7978.07
364.457	8080.72
364.823	8144.08
365.19	8204.81
365.557	8235.69
365.923	8207.93
366.29	8223.49
366.656	8383.45
367.022	8423.08
367.389	8465.29
367.755	8388.63
368.121	8493.25
368.488	8552.5
368.854	8538.27
369.22	8560.52
369.586	8537.76
369.952	8553.28
370.318	8587.68
370.684	8549.66
371.051	8628.54
371.416	8672.22
371.782	8751.02
372.148	8729.84
372.514	8710.98
372.88	8820.22
373.246	8826.16
373.612	8972.16
373.977	9054.38
374.343	9102.8
374.709	9138.85
375.074	9144.52
375.44	9160.74
375.806	9167.17
376.171	9242.57
376.537	9319.72
376.902	9269.06
377.268	9424.32
377.633	9471.84
377.998	9558.35
378.364	9802.18
378.729	9738.38
379.094	9829.33
379.459	9573.49
379.825	9606.84
380.19	9611.72
380.555	9535.25
380.92	9440.25
381.285	9485.19
381.65	9526.52
382.015	9587.6
382.38	9580.16
382.745	9570.92
383.11	9518.31
383.474	9543.72
383.839	9595.3
384.204	9564.76
384.569	9573.23
384.933	9559.37
385.298	9466.7
385.663	9540.9
386.027	9621.98
386.392	9701.21
386.756	9917.91
387.121	10034.06
387.485	10108.45
387.849	10185.87
388.214	10098.49
388.578	10032.52
388.942	9934.29
389.307	9977.79
389.671	9926.87
390.035	10000.04
390.399	10098.74
390.763	10195.58
391.127	10350.54
391.492	10631.44
391.856	10875.96
392.219	11166.54
392.583	11235.55
392.947	10960.09
393.311	10683.89
393.675	10524.96
394.039	10554.01
394.403	10622.27
394.766	10534.9
395.13	10530.31
395.494	10538.46
395.857	10646.21
396.221	10703.24
396.584	10879.52
396.948	11169.33
397.311	11471.52
397.675	11716.26
398.038	11909.36
398.401	11620.63
398.765	11348.64
399.128	11048.5
399.491	10858.93
399.854	10822.82
400.218	10810.87
400.581	10811.37
400.944	10742.18
401.307	10532.35
401.67	10637.3
402.033	10524.45
402.396	10576.93
402.759	10585.85
403.122	10615.91
403.485	10748.79
403.847	10889.69
404.21	10975.59
404.573	11168.82
404.936	11263.7
405.298	11145.48
405.661	10951.45
406.023	10611.83
406.386	10532.35
406.749	10411.25
407.111	10416.61
407.473	10660.21
407.836	10848
408.198	11003.03
408.561	10966.45
408.923	10955.27
409.285	10928.07
409.647	10915.37
410.009	10733.01
410.372	10678.55
410.734	10627.88
411.096	10641.88
411.458	10752.86
411.82	10797.38
412.182	10956.54
412.544	11011.67
412.906	11032.5
413.267	11042.65
413.629	10926.04
413.991	10833.25
414.353	10869.35
414.714	10609.54
415.076	10577.44
415.438	10607.5
415.799	10707.56
416.161	10566.74
416.522	10473.98
416.884	10429.62
417.245	10434.97
417.607	10421.2
417.968	10384.73
418.329	10490.55
418.691	10543.81
419.052	10647.74
419.413	10732.76
419.774	10769.4
420.135	11196.48
420.497	11513.56
420.858	11933.61
421.219	12141.61
421.58	11977.56
421.941	11620.38
422.302	11160.7
422.662	11145.98
423.023	10941.54
423.384	10906.98
423.745	10886.64
424.106	10847.74
424.466	11127.71
424.827	10948.66
425.187	10621.51
425.548	10441.6
425.909	10225.97
426.269	10288.27
426.63	10374.27
426.99	10678.8
427.35	10562.92
427.711	10587.63
428.071	10792.04
428.431	11096.23
428.792	11799.19
429.152	12608.98
429.512	12911.96
429.872	12873.26
430.232	12550.85
430.592	11958.87
430.952	11294.89
431.312	10815.44
431.672	10393.14
432.032	10262.49
432.392	10417.63
432.752	11184.05
433.111	12002.3
433.471	12121.94
433.831	11461.64
434.19	11108.67
434.55	11024.62
434.91	10795.86
435.269	10977.12
435.629	11050.27
435.988	11180.24
436.348	11072.62
436.707	10711.13
437.066	10613.36
437.426	10719.27
437.785	10907.74
438.144	10949.17
438.503	10798.4
438.862	10614.63
439.222	10544.32
439.581	10439.82
439.94	10486.22
440.299	11108.42
440.658	11725.87
441.017	12037.39
441.376	12004.57
441.734	11722.33
442.093	11445.68
442.452	11582.17
442.811	11766.83
443.169	11787.31
443.528	11574.07
443.887	11432.77
444.245	11305.79
444.604	11041.38
444.962	10986.01
445.321	10942.31
445.679	10983.22
446.038	11221.09
446.396	10955.27
446.754	10586.62
447.112	10545.6
447.471	10433.19
447.829	10257.64
448.187	10200.43
448.545	10353.35
448.903	10339.82
449.261	10272.95
449.619	10168.25
449.977	10099.76
450.335	9860.57
450.693	9727.61
451.051	9848.02
451.409	9758.88
451.766	9735.3
452.124	9502.39
452.482	9357.25
452.839	9148.38
453.197	9038.92
453.555	8879.32
453.912	8874.93
454.27	9023.71
454.627	9386.04
454.984	9488.27
455.342	9338.23
455.699	9000.26
456.056	9001.03
456.414	9148.89
456.771	9404.79
457.128	9546.54
457.485	9695.57
457.842	9578.88
458.199	9627.88
458.556	9881.82
458.913	9690.7
459.27	9867.74
459.627	9780.91
459.984	9743.5
460.341	9819.08
460.697	9659.68
461.054	9281.41
461.411	8853.77
461.767	8501.53
462.124	8411.94
462.481	8681.27
462.837	8870.03
463.194	9286.55
463.55	9166.91
463.907	9574.77
464.263	9848.02
464.619	10296.44
464.976	10624.57
465.332	10776.52
465.688	10426.04
466.044	9741.2
466.4	9329.49
466.756	9049.22
467.112	9019.33
467.468	9021.91
467.824	8977.06
468.18	8801.63
468.536	8682.56
468.892	8401.32
469.248	8329.03
469.604	8230.24
469.959	8111.11
470.315	8160.69
470.671	8193.4
471.026	8242.43
471.382	8425.41
471.737	8629.83
472.093	8817.64
472.448	9122.63
472.804	9312.01
473.159	9521.9
473.514	9574.77
473.87	9662.5
474.225	9927.12
474.58	10518.84
474.935	10670.4
475.29	10463.02
475.645	10370.44
476	10187.66
476.355	10125.07
476.71	9995.44
477.065	10383.96
477.42	10721.31
477.775	10973.56
478.13	10842.4
478.485	10872.15
478.839	10972.29
479.194	11443.91
479.549	11837.1
479.903	12059.35
480.258	11838.87
480.612	11941.95
480.967	12364.24
481.321	12594.64
481.675	12411.85
482.03	11829.52
482.384	11591.53
482.738	11632.78
483.093	11810.06
483.447	12268.47
483.801	12930.55
484.155	13403.02
484.509	15016.28
484.863	30149
485.217	42756.05
485.571	48253.5
485.925	36355.85
486.279	24345.05
486.632	18116.72
486.986	15454.51
487.34	13688.29
487.694	12657.04
488.047	12239.98
488.401	12330.72
488.754	12096.2
489.108	11853.78
489.461	11615.07
489.815	11358.77
490.168	11503.68
490.522	11638.6
490.875	11621.14
491.228	11501.41
491.581	11637.08
491.935	11639.61
492.288	11504.95
492.641	11673.01
492.994	11594.57
493.347	11872.98
493.7	11969.98
494.053	11882.59
494.406	11719.04
494.759	11200.79
495.111	11519.64
495.464	12279.56
495.817	13082.22
496.169	12979.53
496.522	12147.92
496.875	11052.05
497.227	10708.33
497.58	10551.46
497.932	10853.84
498.285	10904.44
498.637	11417.82
498.989	11729.91
499.342	11842.41
499.694	11553.82
500.046	11062.21
500.398	11337.74
500.751	11747.87
501.103	11895.72
501.455	11952.3
501.807	11797.67
502.159	11828.51
502.511	11834.07
502.862	11736.49
503.214	11559.13
503.566	11175.17
503.918	10779.07
504.27	10790.77
504.621	10770.16
504.973	10690
505.324	10734.29
505.676	10935.19
506.027	11105.12
506.379	10719.53
506.73	10080.59
507.082	10071.39
507.433	10332.93
507.784	10677.53
508.136	10480.61
508.487	10299.76
508.838	9997.23
509.189	9949.64
509.54	10175.66
509.891	10053.75
510.242	10121.23
510.593	9887.45
510.944	9812.42
511.295	9566.56
511.646	9326.92
511.996	9250.03
512.347	9390.41
512.698	9479.8
513.049	9463.36
513.399	9233.31
513.75	9251.32
514.1	9117.22
514.451	8803.96
514.801	8620.78
515.152	8707.36
515.502	8991.5
515.852	9279.61
516.202	9194.97
516.553	9053.86
516.903	8848.35
517.253	8541.12
517.603	8397.96
517.953	8502.05
518.303	8861.25
518.653	9014.95
519.003	9096.11
519.353	8511.36
519.703	8176.53
520.052	7858.15
520.402	7964.03
520.752	8177.31
521.102	8102.28
521.451	7964.55
521.801	7842.54
522.15	8071.89
522.5	8148.49
522.849	8167.7
523.199	8323.33
523.548	8448.72
523.897	8471.5
524.246	8169
524.596	7955.45
524.945	7878.45
525.294	7928.14
525.643	7976.25
525.992	8010.3
526.341	8057.86
526.69	8045.13
527.039	7874.29
527.388	7643.49
527.737	7980.41
528.086	8580.44
528.434	9053.6
528.783	8924.72
529.132	8518.35
529.48	8260.84
529.829	8027.46
530.177	7975.73
530.526	7905.25
530.874	7928.66
531.223	7947.65
531.571	7926.84
531.919	8037.85
532.268	8326.96
532.616	8873.64
532.964	9344.4
533.312	9486.99
533.66	9374.73
534.008	9335.66
534.356	9374.73
534.704	9244.11
535.052	9075.5
535.4	8722.87
535.748	8316.85
536.095	7820.93
536.443	7680.77
536.791	7900.83
537.139	8277.18
537.486	8718.47
537.834	9008.51
538.181	9037.63
538.529	8979.64
538.876	8981.19
539.223	8754.9
539.571	8512.14
539.918	8417.64
540.265	8614.32
540.613	9017.79
540.96	8952.05
541.307	8745.34
541.654	8753.09
542.001	8766.26
542.348	8717.96
542.695	8706.33
543.042	8893.51
543.388	9137.57
543.735	9242.05
544.082	9324.09
544.429	9228.42
544.775	8958.5
545.122	8447.16
545.469	8105.13
545.815	8070.85
546.162	8121.75
546.508	8487.29
546.854	9000.78
547.201	9831.63
547.547	10154.71
547.893	9888.99
548.24	9068.29
548.586	8107.73
548.932	7724.56
549.278	7658.09
549.624	7812.34
549.97	7782.13
550.316	7463.67
550.662	7219.95
551.008	7686.51
551.353	8705.56
551.699	9402.74
552.045	9297.1
552.391	8597.25
552.736	8393.29
553.082	8313.74
553.427	8272.77
553.773	7821.97
554.118	7482.21
554.464	7870.12
554.809	8424.64
555.154	8965.46
555.5	9017.27
555.845	8474.35
556.19	7952.59
556.535	7438.59
556.88	7618.97
557.225	7823.79
557.57	7622.36
557.915	7242.47
558.26	6963.08
558.605	6929.48
558.95	7134.05
559.295	7841.23
559.639	8545.26
559.984	9343.37
560.329	9602.22
560.673	9621.21
561.018	9097.91
561.362	8609.4
561.707	8129.54
562.051	8145.64
562.395	8330.07
562.74	8803.44
563.084	8995.62
563.428	9455.66
563.772	9508.04
564.117	9510.35
564.461	9652.24
564.805	9398.88
565.149	9425.35
565.493	9473.89
565.836	9731.97
566.18	9917.14
566.524	11130.75
566.868	12209.97
567.212	12762.17
567.555	12876.03
567.899	13925.68
568.242	15247.42
568.586	17094.93
568.929	19632.86
569.273	22216.42
569.616	22836.91
569.96	23163.8
570.303	24484.91
570.646	25414.19
570.989	26795.41
571.333	26985.95
571.676	25463.03
572.019	21594.02
572.362	22294.97
572.705	26208.18
573.048	30170.65
573.391	32088.75
573.733	33346.3
574.076	33992.3
574.419	33014.67
574.762	29408.18
575.104	25937.93
575.447	24657.9
575.789	27912.62
576.132	32465.25
576.474	33264.18
576.817	38223.22
577.159	43876.55
577.501	45674.14
577.844	40207.17
578.186	31158.54
578.528	26953.78
578.87	26747.53
579.212	28347.26
579.554	31269.33
579.896	31028.31
580.238	33306.35
580.58	43956.78
580.922	51659.48
581.264	55954.23
581.606	48201.57
581.947	41544.77
582.289	33307.09
582.631	26312.26
582.972	22485.45
583.314	22630.76
583.655	24124.46
583.997	28697.71
584.338	34331.09
584.679	38027.36
585.021	37706.06
585.362	32122.25
585.703	27433.63
586.044	25342.04
586.385	28478.73
586.726	32248.89
587.067	31507.2
587.408	27557.91
587.749	24863.77
588.09	22715.43
588.431	20596.36
588.772	18408.25
589.113	18813.45
589.453	19482.5
589.794	18697.88
590.134	16728.02
590.475	15675.11
590.815	15753.07
591.156	15982.63
591.496	16177.32
591.837	21473.44
592.177	26974.65
592.517	31038.15
592.857	28462.02
593.198	24975.18
593.538	20256.63
593.878	18038.51
594.218	18897.46
594.558	21067.66
594.898	20744.55
595.237	18602.01
595.577	16155.25
595.917	14253.23
