Data from FLMS007011_12-38-37-348.txt Node
Date: Thu Apr 21 12:38:37 MDT 2016
User: lab_user
Spectrometer: FLMS00701
Autoset integration time: false
Trigger mode: 0
Integration Time (sec): 5.000000E-3
Scans to average: 10
Electric dark correction enabled: true
Nonlinearity correction enabled: true
Boxcar width: 0
XAxis mode: Wavelengths
Stop averaging: false
Number of Pixels in Spectrum: 2048
>>>>>Begin Spectral Data<<<<<
178.41	7.63
178.791	7.63
179.172	7.63
179.553	-23.51
179.934	-67.25
180.316	-26.65
180.697	-59.53
181.078	-36.09
181.459	-65.53
181.84	-42.95
182.221	-24.94
182.602	-0.37
182.983	26.2
183.364	22.77
183.744	36.19
184.125	61.32
184.506	71.59
184.887	105.55
185.268	173.69
185.648	130.93
186.029	181.67
186.41	200.19
186.791	242.62
187.171	261.7
187.552	355.28
187.932	372.9
188.313	345.61
188.694	368.63
189.074	411.82
189.455	433.12
189.835	445.89
190.216	467.46
190.596	453.56
190.977	508.32
191.357	497.54
191.737	541.5
192.118	530.44
192.498	510.31
192.878	511.44
193.258	566.44
193.639	543.48
194.019	561.06
194.399	560.21
194.779	593.64
195.159	572.39
195.54	573.24
195.92	580.04
196.3	560.49
196.68	573.24
197.06	568.71
197.44	555.1
197.82	597.33
198.2	600.16
198.58	582.03
198.959	605.82
199.339	594.49
199.719	559.92
200.099	587.69
200.479	572.39
200.858	611.77
201.238	603.56
201.618	583.44
201.998	610.07
202.377	575.51
202.757	603.56
203.136	618
203.516	596.19
203.896	622.25
204.275	596.19
204.655	613.75
205.034	614.32
205.414	644.9
205.793	630.46
206.172	641.79
206.552	623.67
206.931	636.69
207.31	664.72
207.69	642.64
208.069	652.83
208.448	634.14
208.827	669.24
209.207	682.54
209.586	689.05
209.965	660.47
210.344	653.39
210.723	678.58
211.102	709.7
211.481	683.39
211.86	701.78
212.239	709.98
212.618	719.88
212.997	732.61
213.376	743.92
213.755	748.44
214.134	748.16
214.513	787.16
214.891	803.54
215.27	820.2
215.649	805.24
216.028	825
216.406	828.96
216.785	871.02
217.164	854.65
217.542	865.66
217.921	877.23
218.3	878.07
218.678	908.54
219.057	944.07
219.435	971.41
219.814	978.74
220.192	1002.97
220.57	993.67
220.949	1034.23
221.327	1101.77
221.705	1104.87
222.084	1113.02
222.462	1158.01
222.84	1191.73
223.218	1194.54
223.597	1241.73
223.975	1250.43
224.353	1329.55
224.731	1341.05
225.109	1393.74
225.487	1439.68
225.865	1499.29
226.243	1513.28
226.621	1567.81
226.999	1623.41
227.377	1685.11
227.755	1758.19
228.133	1772.69
228.511	1797.22
228.889	1891.34
229.266	1948.65
229.644	2043.7
230.022	2109.22
230.4	2090.63
230.777	2217.65
231.155	2272.22
231.533	2316.24
231.91	2435.15
232.288	2438.19
232.665	2520.49
233.043	2609.04
233.42	2683.72
233.798	2753.1
234.175	2842.76
234.553	2903.21
234.93	3005.05
235.307	3088.94
235.685	3130.86
236.062	3195.2
236.439	3258.39
236.816	3332.46
237.194	3422.02
237.571	3495.66
237.948	3564.34
238.325	3656.91
238.702	3694.18
239.079	3783.89
239.456	3835.76
239.833	3926.94
240.21	4049.99
240.587	4101.97
240.964	4188.27
241.341	4233.95
241.718	4330.64
242.095	4332.26
242.472	4418.32
242.849	4495.68
243.225	4585.35
243.602	4648.84
243.979	4665.78
244.356	4763.06
244.732	4849.24
245.109	4959.72
245.486	5024.28
245.862	5054
246.239	5099.24
246.615	5118.5
246.992	5207
247.368	5273.79
247.745	5370.15
248.121	5428.56
248.497	5468.01
248.874	5534.87
249.25	5652.77
249.626	5676.97
250.003	5723.76
250.379	5802.12
250.755	5816.99
251.131	5885.2
251.507	5926.85
251.884	6025.18
252.26	6115.74
252.636	6155.7
253.012	6185.06
253.388	6263.06
253.764	6237.42
254.14	6257.51
254.516	6331.74
254.892	6354.72
255.268	6409.62
255.643	6490.6
256.019	6438.11
256.395	6463.44
256.771	6635.77
257.147	6603.65
257.522	6599.43
257.898	6662.36
258.274	6654.2
258.649	6731.04
259.025	6726.04
259.4	6766.28
259.776	6812.02
260.151	6795.99
260.527	6799.4
260.902	6844.6
261.278	6835.15
261.653	6849.6
262.028	6845.92
262.404	6895.56
262.779	6919.72
263.154	6891.89
263.53	6948.6
263.905	6920.77
264.28	6935.47
264.655	6935.47
265.03	6887.42
265.405	6913.42
265.781	6839.87
266.156	6960.41
266.531	6951.75
266.906	6892.94
267.281	6869.3
267.655	6869.82
268.03	6844.6
268.405	6864.57
268.78	6911.32
269.155	6869.82
269.53	6850.12
269.904	6855.38
270.279	6822.27
270.654	6818.85
271.029	6786
271.403	6766.54
271.778	6757.34
272.152	6733.67
272.527	6729.98
272.901	6761.02
273.276	6738.14
273.65	6721.57
274.025	6718.94
274.399	6686.84
274.774	6695.26
275.148	6677.36
275.522	6630.24
275.897	6554.65
276.271	6548.85
276.645	6625.24
277.019	6582.05
277.393	6551.49
277.768	6560.71
278.142	6552.28
278.516	6476.89
278.89	6495.87
279.264	6471.88
279.638	6488.75
280.012	6430.73
280.386	6292.12
280.76	6386.66
281.133	6316.16
281.507	6284.72
281.881	6307.18
282.255	6217.33
282.629	6165.23
283.002	6126.33
283.376	6177.66
283.75	6060.94
284.123	6019.36
284.497	5988.09
284.87	5992.59
285.244	5984.91
285.618	5913.85
285.991	5824.43
286.364	5842.48
286.738	5798.41
287.111	5751.39
287.485	5703.29
287.858	5679.36
288.231	5588.38
288.605	5543.13
288.978	5535.67
289.351	5456.01
289.724	5366.95
290.097	5320.78
290.47	5282.07
290.843	5251.62
291.217	5174.13
291.59	5123.85
291.963	5098.17
292.336	5032.85
292.708	4920.85
293.081	4840.92
293.454	4913.35
293.827	4807.64
294.2	4719.54
294.573	4585.35
294.945	4574.04
295.318	4531.5
295.691	4521
296.064	4447.17
296.436	4382.72
296.809	4327.94
297.181	4255.57
297.554	4198.54
297.926	4152.03
298.299	4036.99
298.671	4074.9
299.044	4013.69
299.416	3928.3
299.788	3860.2
300.161	3775.46
300.533	3731.98
300.905	3712.4
301.278	3640.04
301.65	3621.53
302.022	3562.71
302.394	3521.29
302.766	3435.93
303.138	3372.61
303.51	3363.32
303.882	3276.98
304.254	3246.9
304.626	3188.63
304.998	3147.56
305.37	3109.77
305.742	3045.09
306.114	3024.52
306.485	2986.94
306.857	2903.21
307.229	2879.04
307.601	2793.27
307.972	2772.64
308.344	2744.02
308.716	2736.59
309.087	2663.61
309.459	2655.89
309.83	2584.77
310.202	2577.05
310.573	2556.09
310.945	2548.08
311.316	2476.31
311.687	2499.51
312.059	2475.48
312.43	2447.31
312.801	2509.45
313.172	2476.86
313.544	2491.78
313.915	2511.93
314.286	2522.14
314.657	2516.35
315.028	2563.53
315.399	2545.05
315.77	2641.29
316.141	2695.84
316.512	2772.36
316.883	2756.68
317.254	2877.66
317.625	2915.02
317.996	3030.01
318.366	3165.64
318.737	3206.69
319.108	3330.54
319.478	3405.91
319.849	3585.31
320.22	3713.22
320.59	3881.1
320.961	4008.27
321.331	4157.44
321.702	4287.71
322.072	4447.98
322.443	4620.6
322.813	4850.31
323.184	5010.62
323.554	5221.43
323.924	5449.88
324.295	5564.69
324.665	5817.52
325.035	6030.22
325.405	6178.45
325.775	6410.41
326.145	6629.72
326.515	6806.24
326.886	6958.05
327.256	7216.51
327.626	7318.3
327.995	7416.6
328.365	7507.24
328.735	7557.88
329.105	7668.21
329.475	7946.56
329.845	8296.59
330.215	8972.63
330.584	9438.92
330.954	9989.77
331.324	10441.3
331.693	10861.18
332.063	11150
332.432	11372.92
332.802	11390.41
333.171	11404.09
333.541	11252.25
333.91	11356.45
334.28	11500.35
334.649	11674.73
335.018	11831.5
335.388	12054.77
335.757	12224.3
336.126	12232.87
336.495	12544.51
336.865	12570.94
337.234	12707.56
337.603	12856.39
337.972	12949.35
338.341	13139.65
338.71	13215.17
339.079	13317.75
339.448	13542.53
339.817	13635.43
340.186	13731.04
340.554	13878.88
340.923	13970.89
341.292	13981.64
341.661	14165.04
342.029	14301.37
342.398	14272.41
342.767	14345.3
343.135	14506.22
343.504	14514.7
343.872	14650.58
344.241	14793.62
344.609	14807.82
344.978	14788.14
345.346	15019.47
345.715	14952.01
346.083	15080.2
346.451	15085.43
346.82	15224.5
347.188	15246.63
347.556	15203.11
347.924	15287.17
348.292	15230.71
348.66	15325.71
349.028	15388.11
349.396	15334.16
349.764	15398.05
350.132	15406.5
350.5	15377.42
350.868	15528.02
351.236	15627.14
351.604	15503.42
351.972	15588.64
352.34	15430.86
352.707	15566.78
353.075	15507.65
353.443	15427.38
353.81	15443.28
354.178	15556.09
354.545	15553.61
354.913	15547.15
355.28	15472.61
355.648	15529.76
356.015	15520.07
356.383	15665.13
356.75	15544.17
357.117	15555.84
357.485	15523.55
357.852	15592.86
358.219	15609.5
358.586	15507.65
358.954	15406
359.321	15565.29
359.688	15499.45
360.055	15409.23
360.422	15556.34
360.789	15469.13
361.156	15527.52
361.523	15376.42
361.89	15422.9
362.256	15510.38
362.623	15368.47
362.99	15355.54
363.357	15285.92
363.724	15373.44
364.09	15289.65
364.457	15191.17
364.823	15437.07
365.19	15316.26
365.557	15349.57
365.923	15237.68
366.29	15237.18
366.656	15406.75
367.022	15349.57
367.389	15380.4
367.755	15152.86
368.121	15162.31
368.488	15168.53
368.854	15079.45
369.22	15028.19
369.586	14921.14
369.952	14862.37
370.318	14734.57
370.684	14695.94
371.051	14780.41
371.416	14586.01
371.782	14655.57
372.148	14569.56
372.514	14429.39
372.88	14469.05
373.246	14499.23
373.612	14547.12
373.977	14532.9
374.343	14626.65
374.709	14679.99
375.074	14607.21
375.44	14573.3
375.806	14378.49
376.171	14548.61
376.537	14538.39
376.902	14425.4
377.268	14592.5
377.633	14622.16
377.998	14727.84
378.364	14984.62
378.729	14876.81
379.094	14913.42
379.459	14469.05
379.825	14377.24
380.19	14441.11
380.555	14315.35
380.92	14019.63
381.285	14020.13
381.65	13987.14
382.015	14076.11
382.38	13977.89
382.745	13848.37
383.11	13827.11
383.474	13760.07
383.839	13746.81
384.204	13682.74
384.569	13696.51
384.933	13617.4
385.298	13557.81
385.663	13519.23
386.027	13551.04
386.392	13682.99
386.756	13850.12
387.121	13906.39
387.485	13960.39
387.849	14089.1
388.214	13982.39
388.578	13780.58
388.942	13531.76
389.307	13537.77
389.671	13525.75
390.035	13578.34
390.399	13554.05
390.763	13659.71
391.127	13729.04
391.492	14122.82
391.856	14330.82
392.219	14783.4
392.583	14732.33
392.947	14325.08
393.311	13820.86
393.675	13795.59
394.039	13602.13
394.403	13591.86
394.766	13425.03
395.13	13378.92
395.494	13287.91
395.857	13463.12
396.221	13495.19
396.584	13699.26
396.948	13899.64
397.311	14305.11
397.675	14565.32
398.038	14611.69
398.401	14272.16
398.765	13895.39
399.128	13598.37
399.491	13209.4
399.854	13117.82
400.218	13115.81
400.581	13039.5
400.944	12929.5
401.307	12696.49
401.67	12612.46
402.033	12550.55
402.396	12481.32
402.759	12516.82
403.122	12657.5
403.485	12693.72
403.847	12703.03
404.21	12953.37
404.573	12980.49
404.936	13129.62
405.298	12961.15
405.661	12637.37
406.023	12242.71
406.386	12047.45
406.749	11905.28
407.111	11918.16
407.473	12071.43
407.836	12332.95
408.198	12494.92
408.561	12413.32
408.923	12415.59
409.285	12400.22
409.647	12195.55
410.009	11990.65
410.372	11952.77
410.734	11804.96
411.096	11875.97
411.458	11809.51
411.82	11964.64
412.182	12091.61
412.544	12115.84
412.906	12134.76
413.267	12200.09
413.629	11948.73
413.991	11763
414.353	11833.02
414.714	11509.47
415.076	11556.56
415.438	11586.68
415.799	11642.35
416.161	11495.03
416.522	11300.17
416.884	11321.47
417.245	11288.51
417.607	11284.45
417.968	11217.24
418.329	11274.31
418.691	11337.95
419.052	11311.84
419.413	11379.01
419.774	11616.8
420.135	12007.06
420.497	12280.27
420.858	12702.02
421.219	12806.62
421.58	12672.34
421.941	12357.64
422.302	11823.67
422.662	11744.03
423.023	11498.32
423.384	11477.56
423.745	11511.24
424.106	11465.15
424.466	11683.34
424.827	11459.07
425.187	11224.85
425.548	10990.54
425.909	10741.62
426.269	10852.28
426.63	10907.95
426.99	11138.07
427.35	11025.85
427.711	11181.72
428.071	11296.12
428.431	11540.36
428.792	12308.25
429.152	13168.26
429.512	13411.25
429.872	13427.04
430.232	13074.4
430.592	12440.02
430.952	11785.75
431.312	11185.53
431.672	10715.92
432.032	10585.3
432.392	10819.47
432.752	11637.04
433.111	12419.12
433.471	12499.95
433.831	11832.26
434.19	11547.19
434.55	11420.06
434.91	11208.36
435.269	11348.59
435.629	11405.61
435.988	11521.37
436.348	11452.48
436.707	10991.3
437.066	10914.31
437.426	11078.16
437.785	11119.54
438.144	11261.63
438.503	11076.39
438.862	10982.41
439.222	10846.17
439.581	10643.88
439.94	10727.37
440.299	11382.55
440.658	12050.98
441.017	12305.48
441.376	12258.84
441.734	11965.14
442.093	11757.69
442.452	11772.6
442.811	12061.08
443.169	12072.18
443.528	11685.86
443.887	11597.82
444.245	11552.51
444.604	11330.85
444.962	11153.81
445.321	11170.81
445.679	11176.65
446.038	11381.79
446.396	11106.6
446.754	10765.29
447.112	10737.3
447.471	10593.45
447.829	10388
448.187	10434.93
448.545	10489.49
448.903	10510.13
449.261	10498.66
449.619	10293.84
449.977	10325.49
450.335	10047.57
450.693	9959.07
451.051	9860.01
451.409	9855.92
451.766	9906.61
452.124	9666.04
452.482	9401.15
452.839	9280.34
453.197	9179.48
453.555	9055.88
453.912	9012.33
454.27	9186.95
454.627	9499.01
454.984	9521.35
455.342	9406.81
455.699	9107.14
456.056	9128.25
456.414	9298.34
456.771	9557.02
457.128	9748.07
457.485	9814.94
457.842	9722.96
458.199	9685.27
458.556	9990.28
458.913	9800.6
459.27	10021.74
459.627	9779.59
459.984	9776.52
460.341	9863.6
460.697	9642.2
461.054	9353.36
461.411	8944.53
461.767	8612.2
462.124	8535.13
462.481	8705.25
462.837	8896.3
463.194	9378.28
463.55	9274.68
463.907	9707.32
464.263	10020.46
464.619	10410.19
464.976	10616.88
465.332	10808.79
465.688	10441.05
466.044	9787.79
466.4	9369.03
466.756	9032.43
467.112	9128
467.468	9039.13
467.824	9023.41
468.18	8819.14
468.536	8697.76
468.892	8511.84
469.248	8410.87
469.604	8278.44
469.959	8222.15
470.315	8174.41
470.671	8161.17
471.026	8287.77
471.382	8478.19
471.737	8581.95
472.093	8880.82
472.448	9095.03
472.804	9352.33
473.159	9576.01
473.514	9563.18
473.87	9741.41
474.225	10053.19
474.58	10527.97
474.935	10741.62
475.29	10495.35
475.645	10365.55
476	10210.61
476.355	10101
476.71	10075.44
477.065	10371.16
477.42	10748.49
477.775	10884.82
478.13	10784.11
478.485	10851.77
478.839	10933.37
479.194	11516.56
479.549	11804.46
479.903	12062.84
480.258	11792.58
480.612	11948.98
480.967	12417.6
481.321	12534.19
481.675	12271.95
482.03	11839.59
482.384	11480.34
482.738	11594.78
483.093	11772.6
483.447	12241.95
483.801	12830
484.155	13468.38
484.509	15099.36
484.863	30484.08
485.217	42573.53
485.571	47778.64
485.925	35849.43
486.279	24450.27
486.632	18343.6
486.986	15423.65
487.34	13628.92
487.694	12653.22
488.047	12234.39
488.401	12145.86
488.754	12085.56
489.108	11867.13
489.461	11639.06
489.815	11375.46
490.168	11487.18
490.522	11620.59
490.875	11602.88
491.228	11458.31
491.581	11615.78
491.935	11595.28
492.288	11453.5
492.641	11590.98
492.994	11578.83
493.347	11781.45
493.7	11912.61
494.053	11803.7
494.406	11638.56
494.759	11179.18
495.111	11394.46
495.464	12266.66
495.817	13107.28
496.169	12903.12
496.522	12030.03
496.875	11036.52
497.227	10631.91
497.58	10546.83
497.932	10759.69
498.285	10895.75
498.637	11313.86
498.989	11708.88
499.342	11839.59
499.694	11488.7
500.046	10997.91
500.398	11296.12
500.751	11629.7
501.103	11734.68
501.455	11806.48
501.807	11675.75
502.159	11801.17
502.511	11752.12
502.862	11662.59
503.214	11453.5
503.566	11032.2
503.918	10598.8
504.27	10693.01
504.621	10676.72
504.973	10509.62
505.324	10590.9
505.676	10846.94
506.027	10976.06
506.379	10644.13
506.73	10068.02
507.082	9992.33
507.433	10292.31
507.784	10603.13
508.136	10329.32
508.487	10256.83
508.838	9935.27
509.189	9830.05
509.54	10069.56
509.891	9939.37
510.242	9964.95
510.593	9858.73
510.944	9699.89
511.295	9429.67
511.646	9220.92
511.996	9142.67
512.347	9389.33
512.698	9343.07
513.049	9315.05
513.399	9189.52
513.75	9177.17
514.1	9001.51
514.451	8706.29
514.801	8569.79
515.152	8709.13
515.502	8902.49
515.852	9196.73
516.202	9138.04
516.553	9016.2
516.903	8797.2
517.253	8474.05
517.603	8367.08
517.953	8388.59
518.303	8696.21
518.653	9019.03
519.003	8951.75
519.353	8450.23
519.703	7960.35
520.052	7819.84
520.402	7862.53
520.752	8112.36
521.102	8017.02
521.451	7817.24
521.801	7857.59
522.15	7922.64
522.5	8066.13
522.849	8132.35
523.199	8214.11
523.548	8302.81
523.897	8323.81
524.246	8095.48
524.596	7819.58
524.945	7769.58
525.294	7821.67
525.643	7889.34
525.992	7822.97
526.341	7933.82
526.69	7951.51
527.039	7749.01
527.388	7614.76
527.737	7908.33
528.086	8456.18
528.434	8969.54
528.783	8858.37
529.132	8449.45
529.48	8098.86
529.829	7941.62
530.177	7900
530.526	7794.33
530.874	7843.01
531.223	7872.16
531.571	7863.84
531.919	7860.97
532.268	8189.2
532.616	8809.59
532.964	9258.48
533.312	9315.31
533.66	9192.09
534.008	9222.97
534.356	9229.15
534.704	9112.03
535.052	8926.74
535.4	8592.81
535.748	8164.54
536.095	7721.91
536.443	7588.41
536.791	7787.3
537.139	8235.12
537.486	8587.9
537.834	8868.44
538.181	8871.02
538.529	8866.37
538.876	8916.42
539.223	8667.53
539.571	8337.28
539.918	8254.06
540.265	8457.48
540.613	8838.24
540.96	8742.2
541.307	8645.04
541.654	8597.98
542.001	8631.85
542.348	8643.23
542.695	8515.72
543.042	8752.79
543.388	8963.87
543.735	9069.79
544.082	9118.47
544.429	9112.29
544.775	8797.46
545.122	8339.62
545.469	7890.12
545.815	7928.88
546.162	8068.21
546.508	8334.43
546.854	8859.41
547.201	9556.25
547.547	9920.43
547.893	9699.37
548.24	8865.86
548.586	7949.17
548.932	7698.45
549.278	7511.42
549.624	7674.47
549.97	7656.74
550.316	7285.08
550.662	7166.23
551.008	7542.22
551.353	8503.81
551.699	9261.82
552.045	9068.76
552.391	8433.4
552.736	8261.06
553.082	8178.3
553.427	8067.69
553.773	7616.32
554.118	7361.71
554.464	7655.44
554.809	8254.58
555.154	8761.05
555.5	8823.79
555.845	8248.61
556.19	7803.7
556.535	7344.45
556.88	7454.74
557.225	7644.75
557.57	7456.57
557.915	7070.32
558.26	6833.31
558.605	6736.56
558.95	6966.45
559.295	7600.67
559.639	8408.53
559.984	9114.09
560.329	9399.36
560.673	9334.33
561.018	8861.99
561.362	8486.99
561.707	7919.26
562.051	8022.48
562.395	8154.94
562.74	8650.21
563.084	8791.26
563.428	9240.47
563.772	9164.04
564.117	9275.45
564.461	9312.74
564.805	9151.17
565.149	9220.92
565.493	9237.9
565.836	9512.1
566.18	9710.4
566.524	10902.61
566.868	11819.87
567.212	12422.39
567.555	12589.82
567.899	13596.62
568.242	14782.66
568.586	16737.14
568.929	19006.29
569.273	21548.55
569.616	22115.49
569.96	22570.83
570.303	23989.71
570.646	24775.64
570.989	26193.41
571.333	26253.55
571.676	24727.79
572.019	20885.31
572.362	21749.17
572.705	25372.92
573.048	29127.35
573.391	31150.37
573.733	32342.49
574.076	33090.56
574.419	32000.75
574.762	28608.45
575.104	25224.7
575.447	24017.93
575.789	27108.2
576.132	31479.82
576.474	32323.51
576.817	37182.46
577.159	42527.36
577.501	44255.83
577.844	39082.37
578.186	30309.13
578.528	26211.82
578.87	25877.27
579.212	27443.17
579.554	30335.7
579.896	30024.73
580.238	32302.32
580.58	42699.08
580.922	50091.7
581.264	54256.4
581.606	46801.43
581.947	40234.68
582.289	32251.81
582.631	25537.1
582.972	21867.76
583.314	21901.65
583.655	23372.1
583.997	27872.54
584.338	33031.14
584.679	36958.11
585.021	36458.15
585.362	31062.98
585.703	26455.34
586.044	24707.67
586.385	27623.45
586.726	30987.65
587.067	30438.06
587.408	26773.27
587.749	23989.96
588.09	21942.16
588.431	19930.75
588.772	17837.82
589.113	18349.27
589.453	18728.15
589.794	18066.11
590.134	16250.9
590.475	15195.39
590.815	15187.19
591.156	15536.72
591.496	15753.53
591.837	20825.85
592.177	26142.11
592.517	29979.22
592.857	27508.01
593.198	24181.83
593.538	19665.3
