Data from FLMS007011_12-39-30-942.txt Node
Date: Thu Apr 21 12:39:30 MDT 2016
User: lab_user
Spectrometer: FLMS00701
Autoset integration time: false
Trigger mode: 0
Integration Time (sec): 5.000000E-3
Scans to average: 10
Electric dark correction enabled: true
Nonlinearity correction enabled: true
Boxcar width: 0
XAxis mode: Wavelengths
Stop averaging: false
Number of Pixels in Spectrum: 2048
>>>>>Begin Spectral Data<<<<<
178.41	24.49
178.791	24.49
179.172	24.49
179.553	-36.94
179.934	-64.68
180.316	-72.11
180.697	-97.57
181.078	-46.66
181.459	-57.53
181.84	-35.8
182.221	-25.22
182.602	-15.22
182.983	-4.94
183.364	40.76
183.744	54.47
184.125	52.18
184.506	111.25
184.887	124.09
185.268	135.21
185.648	169.99
186.029	196.49
186.41	211.3
186.791	221.84
187.171	271.66
187.552	340.49
187.932	370.91
188.313	398.47
188.694	416.65
189.074	416.65
189.455	447.6
189.835	457.81
190.216	465.48
190.596	466.33
190.977	489.31
191.357	487.61
191.737	490.17
192.118	528.46
192.498	533.56
192.878	531.57
193.258	552.27
193.639	542.92
194.019	574.38
194.399	521.65
194.779	545.75
195.159	543.77
195.54	538.1
195.92	547.73
196.3	544.9
196.68	563.04
197.06	583.44
197.44	540.08
197.82	570.13
198.2	550.85
198.58	552.84
198.959	572.11
199.339	542.35
199.719	561.91
200.099	573.81
200.479	557.94
200.858	560.21
201.238	554.54
201.618	550.57
201.998	554.82
202.377	587.13
202.757	559.64
203.136	557.37
203.516	551.14
203.896	557.37
204.275	578.06
204.655	604.41
205.034	612.34
205.414	556.24
205.793	565.02
206.172	558.22
206.552	593.93
206.931	570.69
207.31	571.83
207.69	589.68
208.069	601.01
208.448	601.01
208.827	595.63
209.207	598.74
209.586	594.21
209.965	589.11
210.344	617.15
210.723	605.26
211.102	609.51
211.481	616.59
211.86	645.47
212.239	635.56
212.618	619.99
212.997	639.52
213.376	664.43
213.755	663.02
214.134	637.54
214.513	667.55
214.891	670.94
215.27	663.3
215.649	705.17
216.028	703.19
216.406	701.5
216.785	720.16
217.164	733.17
217.542	743.07
217.921	752.11
218.3	784.05
218.678	771.05
219.057	763.14
219.435	787.72
219.814	799.59
220.192	804.11
220.57	829.52
220.949	847.03
221.327	892.46
221.705	887.67
222.084	915.31
222.462	945.48
222.84	961.83
223.218	966.06
223.597	1008.6
223.975	1043.52
224.353	1049.43
224.731	1117.8
225.109	1149.86
225.487	1122.02
225.865	1167.85
226.243	1187.52
226.621	1217.01
226.999	1270.08
227.377	1312.72
227.755	1331.8
228.133	1352.54
228.511	1432.12
228.889	1462.63
229.266	1482.22
229.644	1541.81
230.022	1647.15
230.4	1632.07
230.777	1679.53
231.155	1732.82
231.533	1781.61
231.91	1854.04
232.288	1899.14
232.665	1901.36
233.043	1955.88
233.42	2038.15
233.798	2093.68
234.175	2150.84
234.553	2174.13
234.93	2212.39
235.307	2308.77
235.685	2370.74
236.062	2382.63
236.439	2484.6
236.816	2527.66
237.194	2562.15
237.571	2615.1
237.948	2682.07
238.325	2754.2
238.702	2769.06
239.079	2835.89
239.456	2865.57
239.833	2958.68
240.21	3019.04
240.587	3053.86
240.964	3127.57
241.341	3192.73
241.718	3273.7
242.095	3308.14
242.472	3349.67
242.849	3446.85
243.225	3460.48
243.602	3572.24
243.979	3581.5
244.356	3624.25
244.732	3693.64
245.109	3775.74
245.486	3799.1
245.862	3919.89
246.239	3942.4
246.615	3992.01
246.992	4060.28
247.368	4064.07
247.745	4173.94
248.121	4228.27
248.497	4231.79
248.874	4328.21
249.25	4350.34
249.626	4460.38
250.003	4455.26
250.379	4565.97
250.755	4611.18
251.131	4662.29
251.507	4682.18
251.884	4765.48
252.26	4826.16
252.636	4847.9
253.012	4896.45
253.388	4955.43
253.764	5024.28
254.14	5094.95
254.516	5131.61
254.892	5114.22
255.268	5222.5
255.643	5242.01
256.019	5260.97
256.395	5337.6
256.771	5400.29
257.147	5414.43
257.522	5421.62
257.898	5464.54
258.274	5496.52
258.649	5579.33
259.025	5651.71
259.4	5559.37
259.776	5681.49
260.151	5658.09
260.527	5727.74
260.902	5772.11
261.278	5793.09
261.653	5818.05
262.028	5846.72
262.404	5850.71
262.779	5962.38
263.154	5984.11
263.53	6040.55
263.905	6004.52
264.28	6015.65
264.655	6042.14
265.03	6007.7
265.405	6099.33
265.781	6137.97
266.156	6122.63
266.531	6161.52
266.906	6152
267.281	6287.63
267.655	6233.98
268.03	6178.45
268.405	6242.44
268.78	6291.33
269.155	6288.16
269.53	6278.91
269.904	6294.24
270.279	6293.44
270.654	6364.22
271.029	6334.38
271.403	6380.85
271.778	6366.07
272.152	6356.3
272.527	6388.51
272.901	6537.52
273.276	6466.86
273.65	6502.2
274.025	6497.45
274.399	6490.6
274.774	6516.7
275.148	6531.98
275.522	6617.08
275.897	6543.84
276.271	6514.32
276.645	6635.77
277.019	6672.1
277.393	6706.83
277.768	6673.94
278.142	6684.2
278.516	6693.41
278.89	6789.94
279.264	6732.88
279.638	6764.7
280.012	6767.33
280.386	6725.78
280.76	6785.73
281.133	6806.5
281.507	6817.8
281.881	6835.15
282.255	6824.37
282.629	6832.78
283.002	6812.02
283.376	6817.8
283.75	6853.27
284.123	6920.25
284.497	6814.65
284.87	6985.34
285.244	6954.9
285.618	6955.42
285.991	6815.7
286.364	6931.54
286.738	6908.17
287.111	6977.47
287.485	6948.07
287.858	6958.57
288.231	6935.21
288.605	6968.02
288.978	6998.19
289.351	6863.52
289.724	6887.42
290.097	6903.7
290.47	6885.32
290.843	6893.99
291.217	6901.08
291.59	6824.11
291.963	6833.31
292.336	6847.49
292.708	6851.7
293.081	6785.73
293.454	6842.77
293.827	6826.47
294.2	6820.17
294.573	6837.25
294.945	6744.45
295.318	6751.29
295.691	6803.08
296.064	6708.68
296.436	6714.2
296.809	6721.3
297.181	6729.46
297.554	6663.15
297.926	6657.36
298.299	6713.41
298.671	6721.04
299.044	6698.94
299.416	6653.94
299.788	6650.51
300.161	6619.45
300.533	6617.08
300.905	6662.62
301.278	6637.35
301.65	6683.42
302.022	6590.21
302.394	6589.95
302.766	6597.33
303.138	6579.68
303.51	6608.65
303.882	6594.95
304.254	6627.61
304.626	6602.59
304.998	6647.88
305.37	6553.59
305.742	6560.71
306.114	6579.41
306.485	6641.56
306.857	6646.57
307.229	6623.92
307.601	6601.8
307.972	6636.56
308.344	6717.09
308.716	6703.94
309.087	6713.94
309.459	6682.36
309.83	6769.17
310.202	6714.2
310.573	6742.35
310.945	6697.89
311.316	6596.54
311.687	6608.39
312.059	6522.5
312.43	6473.19
312.801	6425.98
313.172	6304.01
313.544	6246.41
313.915	6207.81
314.286	6178.45
314.657	6030.22
315.028	5974.57
315.399	5997.63
315.77	5985.44
316.141	5970.86
316.512	6116.54
316.883	6156.76
317.254	6298.46
317.625	6455.79
317.996	6733.93
318.366	6958.05
318.737	7162.82
319.108	7519.25
319.478	7749.27
319.849	8040.67
320.22	8350.24
320.59	8585.83
320.961	8630.3
321.331	8885.98
321.702	8933.18
322.072	9036.04
322.443	9113.06
322.813	9151.17
323.184	9151.68
323.554	9085.25
323.924	9108.94
324.295	9048.92
324.665	9033.2
325.035	9096.06
325.405	9145.25
325.775	9191.06
326.145	9395.76
326.515	9516.21
326.886	9666.81
327.256	9811.1
327.626	9926.57
327.995	10075.69
328.365	10036.32
328.735	10129.88
329.105	10219.29
329.475	10557.78
329.845	10966.15
330.215	11630.71
330.584	12201.35
330.954	12872.22
331.324	13343.82
331.693	13644.69
332.063	13779.33
332.432	13874.13
332.802	13771.83
333.171	13517.48
333.541	13235.24
333.91	13218.94
334.28	13220.94
334.649	13272.61
335.018	13216.68
335.388	13302.2
335.757	13310.73
336.126	13254.05
336.495	13334.04
336.865	13254.55
337.234	13191.09
337.603	13228.97
337.972	13188.08
338.341	13248.03
338.71	13283.14
339.079	13210.41
339.448	13282.64
339.817	13261.08
340.186	13209.66
340.554	13197.61
340.923	13208.65
341.292	13091.22
341.661	13122.09
342.029	13174.78
342.398	13063.85
342.767	12929.75
343.135	13036.74
343.504	12868.2
343.872	12963.16
344.241	12915.68
344.609	12806.62
344.978	12699.26
345.346	12680.89
345.715	12622.03
346.083	12542.5
346.451	12479.56
346.82	12388.63
347.188	12280.02
347.556	12149.14
347.924	12100.19
348.292	11941.4
348.66	11873.2
349.028	11721.02
349.396	11589.21
349.764	11560.61
350.132	11371.66
350.5	11274.31
350.868	11183.75
351.236	11144.67
351.604	10952.43
351.972	10955.99
352.34	10724.32
352.707	10708.79
353.075	10647.95
353.443	10610.77
353.81	10439.01
354.178	10477.51
354.545	10418.61
354.913	10327.02
355.28	10262.96
355.648	10244.32
356.015	10150.58
356.383	10133.71
356.75	9969.3
357.117	10008.7
357.485	9864.37
357.852	9856.94
358.219	9830.82
358.586	9774.72
358.954	9683.48
359.321	9564.98
359.688	9488.74
360.055	9408.35
360.422	9369.55
360.789	9347.96
361.156	9292.68
361.523	9225.55
361.89	9182.57
362.256	9186.17
362.623	9084.99
362.99	9067.73
363.357	8959.49
363.724	9027.02
364.09	8927.51
364.457	8900.43
364.823	8955.62
365.19	8931.12
365.557	8933.7
365.923	8868.18
366.29	8917.19
366.656	8907.65
367.022	8972.38
367.389	8936.79
367.755	8797.97
368.121	8796.17
368.488	8818.11
368.854	8800.3
369.22	8765.7
369.586	8804.43
369.952	8703.45
370.318	8625.13
370.684	8659.77
371.051	8744.52
371.416	8654.09
371.782	8704.48
372.148	8688.2
372.514	8691.04
372.88	8748.4
373.246	8724.37
373.612	8773.7
373.977	8804.69
374.343	8934.47
374.709	9089.37
375.074	8981.4
375.44	9024.7
375.806	9026.5
376.171	9011.04
376.537	9099.41
376.902	9126.45
377.268	9218.86
377.633	9247.41
377.998	9371.86
378.364	9506.2
378.729	9599.62
379.094	9593.71
379.459	9403.47
379.825	9391.39
380.19	9396.79
380.555	9373.92
380.92	9170.99
381.285	9227.6
381.65	9369.03
382.015	9371.6
382.38	9378.8
382.745	9354.13
383.11	9298.85
383.474	9410.66
383.839	9393.7
384.204	9375.46
384.569	9426.59
384.933	9376.74
385.298	9436.09
385.663	9457.15
386.027	9551.38
386.392	9637.07
386.756	9838.76
387.121	9915.82
387.485	10044.76
387.849	10145.72
388.214	10095.12
388.578	10066.49
388.942	10000.51
389.307	9994.63
389.671	10068.53
390.035	10105.6
390.399	10243.04
390.763	10412.49
391.127	10583.52
391.492	10799.63
391.856	11104.06
392.219	11445.39
392.583	11568.96
392.947	11298.4
393.311	11024.33
393.675	10913.29
394.039	10859.14
394.403	10965.64
394.766	10844.39
395.13	10919.14
395.494	10909.48
395.857	11180.2
396.221	11238.8
396.584	11457.29
396.948	11671.7
397.311	12091.36
397.675	12365.45
398.038	12585.79
398.401	12310.52
398.765	12030.79
399.128	11775.64
399.491	11555.29
399.854	11593.26
400.218	11553.52
400.581	11553.27
400.944	11540.61
401.307	11323.24
401.67	11384.83
402.033	11403.33
402.396	11358.48
402.759	11455.27
403.122	11539.6
403.485	11650.2
403.847	11817.85
404.21	11969.18
404.573	12168.06
404.936	12329.67
405.298	12137.03
405.661	11946.96
406.023	11597.06
406.386	11535.8
406.749	11432.47
407.111	11396.74
407.473	11655
407.836	11902
408.198	12011.35
408.561	12004.28
408.923	12073.44
409.285	12097.92
409.647	12007.56
410.009	11807.24
410.372	11740.75
410.734	11671.7
411.096	11702.56
411.458	11791.06
411.82	11956.05
412.182	12118.11
412.544	12132.49
412.906	12202.11
413.267	12252.79
413.629	12149.65
413.991	11944.43
414.353	12059.56
414.714	11797.63
415.076	11746.81
415.438	11730.63
415.799	11827.96
416.161	11829.48
416.522	11631.73
416.884	11607.69
417.245	11661.33
417.607	11585.41
417.968	11579.09
418.329	11749.09
418.691	11716.47
419.052	11765.78
419.413	11834.28
419.774	11999.48
420.135	12479.05
420.497	12871.71
420.858	13289.16
421.219	13454.85
421.58	13344.07
421.941	12939.8
422.302	12483.34
422.662	12350.34
423.023	12181.43
423.384	12108.77
423.745	12122.4
424.106	12102.97
424.466	12420.12
424.827	12207.4
425.187	11890.88
425.548	11642.61
425.909	11445.64
426.269	11501.36
426.63	11613.51
426.99	11951.76
427.35	11879.76
427.711	11896.69
428.071	12045.43
428.431	12424.66
428.792	13253.8
429.152	14146.55
429.512	14513.7
429.872	14382.48
430.232	14199.75
430.592	13425.28
430.952	12715.1
431.312	12135.52
431.672	11578.07
432.032	11512
432.392	11759.46
432.752	12606.43
433.111	13436.31
433.471	13648.7
433.831	12858.14
434.19	12567.92
434.55	12426.17
434.91	12169.57
435.269	12418.36
435.629	12453.62
435.988	12578.74
436.348	12438.51
436.707	12079
437.066	11950.75
437.426	12030.28
437.785	12198.07
438.144	12302.71
438.503	12157.72
438.862	12127.19
439.222	11895.18
439.581	11721.78
439.94	11779.94
440.299	12571.7
440.658	13298.69
441.017	13563.32
441.376	13466.63
441.734	13144.67
442.093	12928.5
442.452	12953.37
442.811	13281.64
443.169	13316.99
443.528	12968.94
443.887	12915.94
444.245	12733.46
444.604	12508.01
444.962	12358.65
445.321	12339
445.679	12310.01
446.038	12589.31
446.396	12317.83
446.754	11981.3
447.112	11894.42
447.471	11774.88
447.829	11570.73
448.187	11552
448.545	11715.46
448.903	11684.09
449.261	11626.66
449.619	11488.45
449.977	11318.93
450.335	11126.4
450.693	11037.53
451.051	11031.44
451.409	10955.73
451.766	11019.5
452.124	10721.77
452.482	10483.11
452.839	10334.68
453.197	10096.14
453.555	10086.68
453.912	10034.53
454.27	10317.07
454.627	10523.89
454.984	10657.63
455.342	10452.01
455.699	10239.98
456.056	10125.53
456.414	10362.74
456.771	10638.27
457.128	10805.48
457.485	10975.3
457.842	10906.94
458.199	10872.36
458.556	11083.24
458.913	10934.13
459.27	11256.81
459.627	10964.63
459.984	10974.03
460.341	11112.44
460.697	10865.75
461.054	10477
461.411	9959.58
461.767	9663.48
462.124	9539.83
462.481	9718.34
462.837	9988.49
463.194	10499.43
463.55	10344.37
463.907	10847.44
464.263	11218.26
464.619	11577.06
464.976	11986.35
465.332	12173.36
465.688	11775.38
466.044	11053.02
466.4	10533.07
466.756	10280.57
467.112	10166.42
467.468	10144.19
467.824	10083.87
468.18	9903.79
468.536	9732.7
468.892	9498.24
469.248	9368.52
469.604	9276.22
469.959	9255.39
470.315	9340.76
470.671	9246.9
471.026	9293.97
471.382	9508.25
471.737	9718.6
472.093	9902.25
472.448	10282.61
472.804	10556.51
473.159	10794.54
473.514	10805.23
473.87	10857.62
474.225	11380.78
474.58	11928.77
474.935	12132.74
475.29	11898.71
475.645	11656.52
476	11554.53
476.355	11412.45
476.71	11310.57
477.065	11668.41
477.42	12114.32
477.775	12232.62
478.13	12243.46
478.485	12366.46
478.839	12348.82
479.194	12966.68
479.549	13375.41
479.903	13607.39
480.258	13313.23
480.612	13489.17
480.967	14101.09
481.321	14268.92
481.675	13981.64
482.03	13469.13
482.384	13045.28
482.738	13181.81
483.093	13504.71
483.447	13862.63
483.801	14626.9
484.155	15255.34
484.509	17109.48
484.863	34284.41
485.217	48304.12
485.571	54266.8
485.925	41189.17
486.279	28018.47
486.632	20829.54
486.986	17561.26
487.34	15588.64
487.694	14343.3
488.047	13808.6
488.401	13933.89
488.754	13774.33
489.108	13470.38
489.461	13272.36
489.815	12880.26
490.168	13070.13
490.522	13127.86
490.875	13193.6
491.228	13093.22
491.581	13221.45
491.935	13195.36
492.288	13066.87
492.641	13140.91
492.994	13180.55
493.347	13335.3
493.7	13493.18
494.053	13524.49
494.406	13303.96
494.759	12754.33
495.111	12983.5
495.464	13972.89
495.817	14977.9
496.169	14738.8
496.522	13727.54
496.875	12542.5
497.227	12088.59
497.58	11954.28
497.932	12313.54
498.285	12373.52
498.637	12925.48
498.989	13392.7
499.342	13442.57
499.694	13017.15
500.046	12572.2
500.398	12981.5
500.751	13334.8
501.103	13406.74
501.455	13508.21
501.807	13435.3
502.159	13443.07
502.511	13436.31
502.862	13341.31
503.214	13115.31
503.566	12660.52
503.918	12234.39
504.27	12193.28
504.621	12262.12
504.973	12043.41
505.324	12176.13
505.676	12419.12
506.027	12629.83
506.379	12052.24
506.73	11461.09
507.082	11426.9
507.433	11728.61
507.784	12156.46
508.136	11914.88
508.487	11702.56
508.838	11341.75
509.189	11292.31
509.54	11420.31
509.891	11366.08
510.242	11454.76
510.593	11231.7
510.944	11075.88
511.295	10885.58
511.646	10539.18
511.996	10487.19
512.347	10670.36
512.698	10781.06
513.049	10637.26
513.399	10503
513.75	10544.79
514.1	10296.91
514.451	9979.02
514.801	9699.89
515.152	9921.19
515.502	10113.52
515.852	10413.76
516.202	10469.35
516.553	10339.02
516.903	10004.35
517.253	9635.78
517.603	9604.23
517.953	9584.99
518.303	9913.77
518.653	10260.4
519.003	10287.72
519.353	9704.76
519.703	9178.71
520.052	8934.99
520.402	8959.23
520.752	9238.67
521.102	9141.9
521.451	8946.34
521.801	8836.69
522.15	9052.01
522.5	9284.19
522.849	9248.7
523.199	9386.51
523.548	9593.46
523.897	9512.87
524.246	9248.96
524.596	8989.91
524.945	8938.08
525.294	9033.98
525.643	9003.83
525.992	9021.87
526.341	9134.95
526.69	9124.13
527.039	8842.63
527.388	8741.94
527.737	9032.69
528.086	9745.25
528.434	10328.04
528.783	10133.97
529.132	9657.07
529.48	9256.42
529.829	9147.56
530.177	9047.38
530.526	8839.28
530.874	9025.22
531.223	8987.07
531.571	9027.28
531.919	9020.32
532.268	9423.25
532.616	10069.81
532.964	10600.33
533.312	10711.59
533.66	10608.48
534.008	10573.07
534.356	10638.02
534.704	10454.56
535.052	10243.55
535.4	9866.93
535.748	9379.31
536.095	8887.79
536.443	8720.76
536.791	8938.6
537.139	9364.66
537.486	9877.94
537.834	10099.98
538.181	10198.86
538.529	10188.64
538.876	10183.28
539.223	10107.39
539.571	9614.75
539.918	9544.96
540.265	9703.73
540.613	10151.6
540.96	10037.85
541.307	9969.3
541.654	9902.77
542.001	9935.01
542.348	9917.36
542.695	9855.92
543.042	10057.03
543.388	10304.56
543.735	10522.37
544.082	10510.13
544.429	10457.37
544.775	10048.85
545.122	9668.87
545.469	9081.38
545.815	9099.41
546.162	9210.37
546.508	9623.73
546.854	10227.72
547.201	11058.36
547.547	11560.61
547.893	11204.3
548.24	10287.72
548.586	9221.94
548.932	8799.52
549.278	8592.29
549.624	8865.86
549.97	8824.31
550.316	8447.38
550.662	8212.03
551.008	8650.73
551.353	9867.95
551.699	10634.96
552.045	10467.31
552.391	9798.29
552.736	9504.4
553.082	9512.36
553.427	9391.65
553.773	8777.84
554.118	8505.63
554.464	8935.5
554.809	9545.99
555.154	10121.7
555.5	10175.87
555.845	9705.01
556.19	9045.06
556.535	8470.94
556.88	8628.75
557.225	8859.66
557.57	8549.61
557.915	8227.34
558.26	7847.18
558.605	7833.38
558.95	8138.07
559.295	8932.41
559.639	9681.17
559.984	10506.31
560.329	10857.11
560.673	10801.92
561.018	10384.68
561.362	9702.71
561.707	9190.04
562.051	9186.43
562.395	9436.35
562.74	9948.83
563.084	10133.97
563.428	10611.79
563.772	10676.98
564.117	10670.1
564.461	10829.39
564.805	10610.52
565.149	10682.07
565.493	10747.22
565.836	11043.88
566.18	11325.78
566.524	12662.03
566.868	13817.61
567.212	14368.01
567.555	14594.99
567.899	15691.71
568.242	17283.28
568.586	19435.69
568.929	22045.52
569.273	25100.04
569.616	25957.53
569.96	26452.15
570.303	27910.62
570.646	28976.16
570.989	30393.53
571.333	30530.59
571.676	28966.58
572.019	24675.52
572.362	25164.33
572.705	29548.55
573.048	34044.32
573.391	36440.1
573.733	37821.36
574.076	38837.26
574.419	37529.32
574.762	33523.58
575.104	29600.44
575.447	27956.8
575.789	31507.41
576.132	36820.61
576.474	37797.1
576.817	43335.6
577.159	49637.86
577.501	51666.51
577.844	45954.86
578.186	35686.37
578.528	30657.33
578.87	30460.95
579.212	32084.76
579.554	35495.91
579.896	35021.99
580.238	37795.87
580.58	49612.11
580.922	57957.55
581.264	62447.49
581.606	54843.23
581.947	47425.9
582.289	38097.14
582.631	30029.89
582.972	25688.53
583.314	25604.59
583.655	27271.01
583.997	32671.74
584.338	38812.23
584.679	43260.81
585.021	42916.11
585.362	36664.09
585.703	31276.68
586.044	28862.35
586.385	32289.02
586.726	36375.58
587.067	35798.78
587.408	31429.84
587.749	28323.63
588.09	25898.62
588.431	23560.06
588.772	21020.45
589.113	21363.12
589.453	22089.95
589.794	21231.96
590.134	19205.27
590.475	17792.64
590.815	17717.09
591.156	18208.2
591.496	18461.96
591.837	24381.32
592.177	30496.88
592.517	35263.25
592.857	32610.12
