Data from FLMS007011_11-48-26-090.txt Node
Date: Thu Apr 21 11:48:26 MDT 2016
User: lab_user
Spectrometer: FLMS00701
Autoset integration time: false
Trigger mode: 0
Integration Time (sec): 5.000000E-3
Scans to average: 10
Electric dark correction enabled: true
Nonlinearity correction enabled: true
Boxcar width: 0
XAxis mode: Wavelengths
Stop averaging: false
Number of Pixels in Spectrum: 2048
>>>>>Begin Spectral Data<<<<<
178.41	22.45
178.791	22.45
179.172	22.45
179.553	-46.69
179.934	-58.42
180.316	-54.41
180.697	-71.86
181.078	-53.27
181.459	-60.99
181.84	-10.97
182.221	-24.97
182.602	-6.11
182.983	9.32
183.364	9.6
183.744	43.87
184.125	58.72
184.506	82.69
184.887	115.78
185.268	132.89
185.648	150.29
186.029	164.82
186.41	189.33
186.791	220.95
187.171	234.33
187.552	259.96
187.932	314.3
188.313	302.92
188.694	318
189.074	338.19
189.455	348.99
189.835	375.99
190.216	367.47
190.596	373.72
190.977	376.27
191.357	406.11
191.737	406.11
192.118	437.91
192.498	426.55
192.878	427.41
193.258	466.58
193.639	445.01
194.019	449.27
194.399	442.17
194.779	459.2
195.159	437.63
195.54	439.9
195.92	451.25
196.3	454.66
196.68	458.35
197.06	451.82
197.44	454.66
197.82	434.22
198.2	430.25
198.58	436.78
198.959	433.94
199.339	432.8
199.719	410.93
200.099	406.96
200.479	414.63
200.858	409.23
201.238	423.15
201.618	412.92
201.998	426.55
202.377	419.74
202.757	401.85
203.136	411.5
203.516	411.79
203.896	411.5
204.275	406.96
204.655	419.45
205.034	404.4
205.414	410.37
205.793	432.52
206.172	390.77
206.552	389.35
206.931	379.97
207.31	409.51
207.69	433.94
208.069	402.7
208.448	424.85
208.827	429.68
209.207	425.7
209.586	386.22
209.965	412.07
210.344	429.39
210.723	402.98
211.102	397.58
211.481	402.13
211.86	401.85
212.239	417.75
212.618	418.32
212.997	390.2
213.376	418.6
213.755	416.05
214.134	408.09
214.513	388.21
214.891	416.61
215.27	411.22
215.649	413.77
216.028	412.92
216.406	414.34
216.785	400.71
217.164	416.9
217.542	398.15
217.921	426.84
218.3	421.16
218.678	426.55
219.057	416.9
219.435	432.8
219.814	417.18
220.192	418.89
220.57	433.94
220.949	426.55
221.327	440.18
221.705	428.83
222.084	418.32
222.462	399.29
222.84	437.91
223.218	410.93
223.597	420.31
223.975	410.93
224.353	427.12
224.731	412.92
225.109	404.69
225.487	418.32
225.865	423.71
226.243	451.25
226.621	413.49
226.999	420.02
227.377	422.01
227.755	433.94
228.133	436.78
228.511	446.43
228.889	417.18
229.266	437.34
229.644	420.87
230.022	403.55
230.4	406.67
230.777	431.38
231.155	445.58
231.533	462.04
231.91	430.25
232.288	428.26
232.665	448.7
233.043	433.65
233.42	420.02
233.798	436.78
234.175	443.87
234.553	423.43
234.93	423.15
235.307	431.67
235.685	446.43
236.062	429.11
236.439	419.17
236.816	432.52
237.194	435.07
237.571	425.7
237.948	444.44
238.325	430.25
238.702	442.74
239.079	446.43
239.456	457.5
239.833	435.07
240.21	452.39
240.587	430.53
240.964	444.73
241.341	434.79
241.718	440.18
242.095	413.21
242.472	438.2
242.849	440.47
243.225	421.73
243.602	427.12
243.979	426.55
244.356	443.59
244.732	460.34
245.109	446.43
245.486	444.16
245.862	437.91
246.239	448.98
246.615	414.63
246.992	454.09
247.368	448.7
247.745	443.87
248.121	442.45
248.497	451.54
248.874	447.56
249.25	444.44
249.626	430.25
250.003	430.25
250.379	449.27
250.755	448.42
251.131	446.43
251.507	428.54
251.884	459.49
252.26	454.38
252.636	459.49
253.012	459.49
253.388	446.71
253.764	445.01
254.14	445.86
254.516	438.48
254.892	441.6
255.268	428.83
255.643	448.13
256.019	459.49
256.395	466.3
256.771	452.96
257.147	473.11
257.522	458.35
257.898	435.07
258.274	463.46
258.649	448.13
259.025	452.39
259.4	446.43
259.776	451.54
260.151	443.02
260.527	435.36
260.902	444.73
261.278	458.07
261.653	448.13
262.028	474.81
262.404	481.91
262.779	461.19
263.154	447.85
263.53	450.12
263.905	461.47
264.28	458.92
264.655	447.85
265.03	474.81
265.405	458.07
265.781	484.74
266.156	445.29
266.531	459.2
266.906	453.53
267.281	437.91
267.655	434.79
268.03	474.53
268.405	462.32
268.78	447
269.155	461.47
269.53	466.3
269.904	453.81
270.279	459.77
270.654	455.8
271.029	452.39
271.403	446.43
271.778	481.34
272.152	456.65
272.527	447.56
272.901	455.8
273.276	462.32
273.65	447
274.025	480.2
274.399	466.01
274.774	448.98
275.148	428.54
275.522	439.33
275.897	456.36
276.271	481.91
276.645	489.85
277.019	447
277.393	471.12
277.768	449.55
278.142	447.28
278.516	456.36
278.89	491.84
279.264	463.46
279.638	453.24
280.012	445.58
280.386	480.49
280.76	466.01
281.133	457.5
281.507	453.53
281.881	458.63
282.255	459.2
282.629	457.78
283.002	465.16
283.376	456.36
283.75	460.34
284.123	458.07
284.497	466.01
284.87	466.58
285.244	466.3
285.618	477.37
285.991	467.15
286.364	445.86
286.738	471.69
287.111	441.32
287.485	462.32
287.858	439.62
288.231	460.05
288.605	466.01
288.978	441.89
289.351	468.28
289.724	468
290.097	471.69
290.47	469.42
290.843	497.51
291.217	458.92
291.59	482.47
291.963	468.57
292.336	481.05
292.708	462.04
293.081	485.88
293.454	484.46
293.827	490.98
294.2	475.66
294.573	471.69
294.945	463.74
295.318	464.6
295.691	468.85
296.064	483.32
296.436	463.18
296.809	470.27
297.181	476.23
297.554	448.7
297.926	472.54
298.299	475.38
298.671	476.8
299.044	486.45
299.416	468.57
299.788	467.15
300.161	459.77
300.533	471.69
300.905	494.96
301.278	449.27
301.65	464.31
302.022	458.07
302.394	494.39
302.766	491.27
303.138	488.15
303.51	469.14
303.882	477.93
304.254	469.7
304.626	464.03
304.998	464.03
305.37	469.7
305.742	476.51
306.114	465.45
306.485	475.95
306.857	457.22
307.229	459.49
307.601	471.69
307.972	479.64
308.344	450.12
308.716	476.51
309.087	456.36
309.459	458.35
309.83	481.91
310.202	464.88
310.573	484.46
310.945	486.16
311.316	470.55
311.687	495.81
312.059	482.19
312.43	464.6
312.801	476.8
313.172	436.21
313.544	477.37
313.915	475.66
314.286	454.94
314.657	477.37
315.028	473.39
315.399	456.08
315.77	483.89
316.141	445.29
316.512	452.67
316.883	473.11
317.254	475.1
317.625	482.19
317.996	466.3
318.366	454.09
318.737	471.12
319.108	473.11
319.478	481.34
319.849	469.42
320.22	483.61
320.59	463.46
320.961	464.03
321.331	469.42
321.702	474.24
322.072	473.96
322.443	479.07
322.813	469.42
323.184	482.47
323.554	470.55
323.924	464.03
324.295	490.13
324.665	478.5
325.035	466.01
325.405	478.78
325.775	486.45
326.145	490.42
326.515	473.96
326.886	454.38
327.256	472.83
327.626	464.88
327.995	489.28
328.365	477.65
328.735	487.3
329.105	458.35
329.475	446.14
329.845	446.71
330.215	475.95
330.584	471.69
330.954	451.54
331.324	450.69
331.693	472.83
332.063	499.21
332.432	501.48
332.802	509.14
333.171	475.38
333.541	460.91
333.91	472.26
334.28	459.77
334.649	481.05
335.018	479.35
335.388	473.39
335.757	491.55
336.126	468
336.495	468.57
336.865	471.41
337.234	459.49
337.603	470.84
337.972	457.78
338.341	449.55
338.71	458.07
339.079	464.03
339.448	455.51
339.817	469.42
340.186	480.2
340.554	446.43
340.923	479.64
341.292	468.28
341.661	483.89
342.029	470.55
342.398	480.49
342.767	490.7
343.135	471.41
343.504	466.01
343.872	471.97
344.241	442.74
344.609	462.89
344.978	468
345.346	464.31
345.715	463.18
346.083	493.82
346.451	455.51
346.82	462.32
347.188	495.52
347.556	474.24
347.924	480.2
348.292	485.59
348.66	482.47
349.028	466.58
349.396	466.58
349.764	481.91
350.132	464.31
350.5	461.76
350.868	450.12
351.236	465.16
351.604	466.3
351.972	487.58
352.34	493.54
352.707	482.19
353.075	492.12
353.443	489.85
353.81	477.08
354.178	488.43
354.545	469.14
354.913	481.62
355.28	459.77
355.648	469.99
356.015	472.54
356.383	475.95
356.75	455.51
357.117	473.96
357.485	473.11
357.852	492.69
358.219	475.66
358.586	468
358.954	455.8
359.321	474.81
359.688	463.74
360.055	467.72
360.422	457.5
360.789	490.42
361.156	474.53
361.523	448.13
361.89	464.88
362.256	474.24
362.623	494.67
362.99	474.53
363.357	466.3
363.724	471.97
364.09	459.2
364.457	493.54
364.823	452.67
365.19	504.32
365.557	496.66
365.923	462.32
366.29	468.85
366.656	472.26
367.022	472.83
367.389	508.86
367.755	487.86
368.121	481.91
368.488	477.65
368.854	484.18
369.22	486.45
369.586	481.05
369.952	492.69
370.318	456.08
370.684	457.5
371.051	473.39
371.416	453.53
371.782	473.39
372.148	462.04
372.514	456.36
372.88	480.2
373.246	460.62
373.612	481.05
373.977	478.5
374.343	481.62
374.709	485.31
375.074	469.14
375.44	476.51
375.806	487.3
376.171	470.55
376.537	464.31
376.902	478.22
377.268	448.98
377.633	484.74
377.998	472.83
378.364	483.89
378.729	487.86
379.094	465.45
379.459	471.41
379.825	474.53
380.19	451.25
380.555	494.39
380.92	471.12
381.285	464.03
381.65	481.05
382.015	462.61
382.38	488.71
382.745	508.29
383.11	477.65
383.474	466.58
383.839	468.57
384.204	500.91
384.569	470.84
384.933	467.15
385.298	469.42
385.663	484.18
386.027	495.24
386.392	462.32
386.756	485.03
387.121	456.36
387.485	457.5
387.849	475.95
388.214	472.83
388.578	475.38
388.942	501.76
389.307	481.62
389.671	482.19
390.035	472.83
390.399	500.91
390.763	471.12
391.127	472.54
391.492	458.07
391.856	487.01
392.219	480.77
392.583	456.08
392.947	454.38
393.311	481.05
393.675	483.32
394.039	473.68
394.403	464.03
394.766	486.16
395.13	460.62
395.494	490.13
395.857	446.14
396.221	469.42
396.584	481.05
396.948	458.92
397.311	497.51
397.675	499.5
398.038	479.64
398.401	464.31
398.765	478.22
399.128	477.65
399.491	482.19
399.854	468.85
400.218	486.16
400.581	458.35
400.944	464.03
401.307	465.16
401.67	483.04
402.033	471.12
402.396	490.98
402.759	493.82
403.122	442.17
403.485	489.85
403.847	474.81
404.21	469.14
404.573	487.58
404.936	499.21
405.298	494.11
405.661	481.62
406.023	507.72
406.386	470.27
406.749	458.35
407.111	493.54
407.473	469.14
407.836	481.05
408.198	481.34
408.561	480.2
408.923	486.73
409.285	448.98
409.647	478.22
410.009	477.08
410.372	471.41
410.734	479.64
411.096	468.85
411.458	470.55
411.82	469.7
412.182	502.05
412.544	488.15
412.906	467.72
413.267	476.8
413.629	449.84
413.991	468.28
414.353	492.69
414.714	459.77
415.076	470.55
415.438	489.28
415.799	483.04
416.161	452.67
416.522	464.03
416.884	474.53
417.245	472.83
417.607	485.59
417.968	488.71
418.329	452.67
418.691	466.87
419.052	458.35
419.413	489.57
419.774	468.57
420.135	447.56
420.497	480.2
420.858	464.6
421.219	447
421.58	492.97
421.941	464.31
422.302	463.74
422.662	473.68
423.023	459.77
423.384	483.04
423.745	481.34
424.106	474.81
424.466	492.97
424.827	473.96
425.187	471.97
425.548	473.96
425.909	474.53
426.269	453.24
426.63	473.39
426.99	450.4
427.35	480.2
427.711	442.74
428.071	481.34
428.431	473.11
428.792	468.28
429.152	492.69
429.512	460.05
429.872	477.08
430.232	475.38
430.592	461.47
430.952	469.42
431.312	462.61
431.672	470.27
432.032	472.54
432.392	466.3
432.752	456.36
433.111	478.5
433.471	467.43
433.831	464.31
434.19	481.34
434.55	471.69
434.91	474.81
435.269	487.3
435.629	490.98
435.988	482.76
436.348	464.6
436.707	452.39
437.066	457.5
437.426	455.8
437.785	485.03
438.144	478.22
438.503	469.7
438.862	456.65
439.222	476.51
439.581	448.7
439.94	489.57
440.299	454.94
440.658	492.97
441.017	473.11
441.376	499.5
441.734	469.99
442.093	475.1
442.452	500.91
442.811	489
443.169	485.59
443.528	456.36
443.887	473.96
444.245	462.04
444.604	490.98
444.962	482.19
445.321	462.89
445.679	469.7
446.038	472.54
446.396	454.38
446.754	450.12
447.112	459.77
447.471	502.33
447.829	462.61
448.187	458.63
448.545	471.69
448.903	481.91
449.261	446.43
449.619	454.38
449.977	499.78
450.335	481.62
450.693	470.27
451.051	465.73
451.409	474.81
451.766	486.16
452.124	482.19
452.482	480.77
452.839	460.62
453.197	486.73
453.555	482.76
453.912	495.52
454.27	470.55
454.627	464.6
454.984	481.05
455.342	489.57
455.699	465.45
456.056	488.71
456.414	472.26
456.771	458.63
457.128	478.22
457.485	481.62
457.842	499.78
458.199	480.2
458.556	487.58
458.913	493.25
459.27	469.99
459.627	474.53
459.984	473.96
460.341	481.05
460.697	484.74
461.054	466.58
461.411	473.68
461.767	492.4
462.124	465.73
462.481	473.96
462.837	455.51
463.194	470.27
463.55	464.03
463.907	460.05
464.263	481.05
464.619	510.84
464.976	478.78
465.332	484.46
465.688	468
466.044	492.97
466.4	469.7
466.756	494.11
467.112	454.09
467.468	455.23
467.824	450.12
468.18	447.56
468.536	464.31
468.892	464.31
469.248	481.34
469.604	457.22
469.959	471.97
470.315	475.95
470.671	511.41
471.026	467.72
471.382	480.49
471.737	484.18
472.093	472.26
472.448	474.24
472.804	494.39
473.159	490.98
473.514	474.24
473.87	475.66
474.225	487.01
474.58	482.47
474.935	459.49
475.29	480.49
475.645	485.03
476	460.62
476.355	471.12
476.71	492.69
477.065	486.16
477.42	464.03
477.775	466.3
478.13	479.92
478.485	468.57
478.839	466.3
479.194	488.15
479.549	454.09
479.903	478.5
480.258	471.69
480.612	483.04
480.967	479.64
481.321	475.1
481.675	498.93
482.03	494.96
482.384	458.92
482.738	460.05
483.093	469.14
483.447	435.07
483.801	481.34
484.155	515.66
484.509	493.54
484.863	474.53
485.217	506.02
485.571	473.68
485.925	472.83
486.279	477.37
486.632	493.82
486.986	478.22
487.34	483.32
487.694	478.22
488.047	471.69
488.401	461.47
488.754	479.07
489.108	501.76
489.461	473.39
489.815	470.55
490.168	439.05
490.522	463.46
490.875	469.7
491.228	469.42
491.581	461.19
491.935	465.45
492.288	471.69
492.641	484.18
492.994	470.55
493.347	466.58
493.7	454.66
494.053	437.34
494.406	465.73
494.759	489
495.111	482.19
495.464	494.11
495.817	469.14
496.169	491.27
496.522	469.7
496.875	475.66
497.227	502.9
497.58	464.31
497.932	487.3
498.285	481.05
498.637	458.35
498.989	479.92
499.342	484.74
499.694	464.03
500.046	484.74
500.398	483.32
500.751	433.65
501.103	501.2
501.455	479.64
501.807	489
502.159	490.7
502.511	472.54
502.862	490.98
503.214	487.01
503.566	483.61
503.918	488.71
504.27	460.34
504.621	470.27
504.973	477.08
505.324	457.78
505.676	469.14
506.027	460.62
506.379	462.32
506.73	473.39
507.082	466.87
507.433	479.07
507.784	468.57
508.136	465.16
508.487	483.89
508.838	458.07
509.189	460.62
509.54	478.22
509.891	445.29
510.242	467.43
510.593	449.27
510.944	473.11
511.295	470.84
511.646	493.82
511.996	465.45
512.347	494.67
512.698	480.49
513.049	476.51
513.399	456.36
513.75	463.18
514.1	467.72
514.451	460.62
514.801	468.85
515.152	470.27
515.502	485.59
515.852	451.82
516.202	498.64
516.553	470.84
516.903	464.88
517.253	478.5
517.603	478.22
517.953	492.69
518.303	473.39
518.653	497.23
519.003	467.15
519.353	474.81
519.703	495.81
520.052	460.91
520.402	490.7
520.752	491.84
521.102	476.51
521.451	498.64
521.801	456.65
522.15	473.68
522.5	472.83
522.849	444.73
523.199	445.01
523.548	464.31
523.897	472.26
524.246	467.15
524.596	456.93
524.945	448.7
525.294	456.36
525.643	481.91
525.992	448.42
526.341	468.57
526.69	458.07
527.039	464.03
527.388	445.86
527.737	473.39
528.086	468.85
528.434	454.09
528.783	478.78
529.132	469.42
529.48	468.85
529.829	459.77
530.177	458.92
530.526	460.34
530.874	468
531.223	467.15
531.571	467.43
531.919	484.74
532.268	467.15
532.616	472.54
532.964	455.8
533.312	469.99
533.66	481.62
534.008	473.68
534.356	463.18
534.704	462.32
535.052	473.39
535.4	485.31
535.748	474.81
536.095	457.78
536.443	437.34
536.791	471.69
537.139	477.93
537.486	479.35
537.834	512.26
538.181	467.72
538.529	494.11
538.876	458.35
539.223	486.16
539.571	458.92
539.918	481.91
540.265	485.88
540.613	490.42
540.96	480.2
541.307	466.01
541.654	453.81
542.001	463.74
542.348	469.99
542.695	471.97
543.042	465.45
543.388	460.34
543.735	475.38
544.082	467.43
544.429	472.54
544.775	483.89
545.122	469.42
545.469	469.7
545.815	483.61
546.162	483.04
546.508	475.1
546.854	469.7
547.201	492.12
547.547	473.11
547.893	477.65
548.24	453.24
548.586	481.91
548.932	459.2
549.278	463.46
549.624	474.53
549.97	475.66
550.316	480.77
550.662	474.53
551.008	477.37
551.353	463.74
551.699	439.62
552.045	431.67
552.391	462.04
552.736	474.81
553.082	479.64
553.427	471.97
553.773	504.03
554.118	481.05
554.464	491.84
554.809	467.72
555.154	454.94
555.5	476.8
555.845	462.89
556.19	461.76
556.535	478.22
556.88	457.5
557.225	478.5
557.57	435.36
557.915	444.16
558.26	465.45
558.605	470.55
558.95	448.98
559.295	456.65
559.639	482.76
559.984	485.88
560.329	463.74
560.673	478.22
561.018	454.94
561.362	510.56
561.707	492.4
562.051	481.34
562.395	463.18
562.74	480.77
563.084	438.48
563.428	477.08
563.772	468.85
564.117	444.73
564.461	486.16
564.805	466.3
565.149	478.22
565.493	486.16
565.836	475.1
566.18	462.04
566.524	485.03
566.868	465.16
567.212	474.81
567.555	449.55
567.899	478.78
568.242	489.85
568.586	473.68
568.929	473.68
569.273	494.96
569.616	474.24
569.96	454.94
570.303	485.59
570.646	481.05
570.989	473.68
571.333	500.63
571.676	472.26
572.019	466.01
572.362	479.35
572.705	471.69
573.048	464.31
573.391	458.92
573.733	465.16
574.076	483.61
574.419	462.32
574.762	498.64
575.104	477.65
575.447	493.25
575.789	491.27
576.132	484.46
576.474	456.93
576.817	451.25
577.159	477.93
577.501	488.15
577.844	447.56
578.186	504.03
578.528	497.79
578.87	460.05
579.212	471.41
579.554	478.22
579.896	483.32
580.238	481.91
580.58	473.96
580.922	465.45
581.264	495.24
581.606	464.88
581.947	467.15
582.289	482.47
582.631	457.78
582.972	461.19
583.314	486.45
583.655	446.71
583.997	474.53
584.338	490.7
584.679	491.27
585.021	470.55
585.362	485.59
585.703	463.18
586.044	465.45
586.385	496.09
586.726	479.35
587.067	466.87
587.408	469.42
587.749	470.27
588.09	464.03
588.431	481.05
588.772	492.97
589.113	475.1
589.453	489.85
589.794	480.49
590.134	474.81
590.475	475.38
590.815	483.04
591.156	450.97
591.496	478.78
591.837	492.97
592.177	489.57
592.517	492.12
592.857	443.87
593.198	465.16
593.538	488.71
593.878	439.05
594.218	495.81
594.558	473.68
594.898	476.8
595.237	473.96
595.577	456.93
595.917	459.49
596.257	459.77
596.596	465.73
596.936	461.19
597.276	464.31
597.615	483.89
597.955	478.78
598.294	464.6
598.633	462.04
598.973	504.03
599.312	498.08
599.651	439.9
599.991	485.59
600.33	460.05
600.669	492.69
601.008	484.74
601.347	467.43
601.686	451.25
602.025	466.87
602.364	478.78
602.702	491.27
603.041	451.54
603.38	449.27
603.719	482.47
604.057	481.05
604.396	463.18
604.734	472.26
605.073	454.66
605.411	478.5
605.75	502.05
606.088	471.97
606.426	485.59
606.764	479.64
607.103	468.85
607.441	456.65
607.779	478.5
608.117	475.66
608.455	469.14
608.793	480.2
609.131	460.91
609.469	475.38
609.806	468.28
610.144	470.84
610.482	462.04
610.819	468.85
611.157	454.38
611.495	462.04
611.832	444.73
612.17	447.85
612.507	508.86
612.844	445.01
613.182	474.81
613.519	465.73
613.856	468.57
614.193	452.11
614.53	503.75
614.867	463.18
615.205	453.53
615.541	479.64
615.878	464.88
616.215	469.42
616.552	480.77
616.889	464.31
617.226	466.01
617.562	462.89
617.899	477.65
618.235	464.31
618.572	467.15
618.908	479.64
619.245	465.16
619.581	471.41
619.918	449.84
620.254	464.6
620.59	460.62
620.926	500.63
621.262	489
621.599	473.39
621.935	471.69
622.271	461.19
622.606	455.51
622.942	485.59
623.278	476.8
623.614	465.45
623.95	467.15
624.285	472.26
624.621	460.34
624.957	478.78
625.292	461.76
625.628	440.47
625.963	476.51
626.299	460.05
626.634	463.46
