Data from FLMS007011_11-01-00-259.txt Node
Date: Thu Apr 21 11:01:00 MDT 2016
User: lab_user
Spectrometer: FLMS00701
Autoset integration time: false
Trigger mode: 0
Integration Time (sec): 5.000000E-3
Scans to average: 10
Electric dark correction enabled: true
Nonlinearity correction enabled: true
Boxcar width: 0
XAxis mode: Wavelengths
Stop averaging: false
Number of Pixels in Spectrum: 2048
>>>>>Begin Spectral Data<<<<<
178.41	46.2
178.791	46.2
179.172	46.2
179.553	-29.78
179.934	-47.79
180.316	-93.83
180.697	-68.38
181.078	-46.36
181.459	-45.79
181.84	-46.36
182.221	-65.8
182.602	-20.64
182.983	-10.92
183.364	43.35
183.744	44.2
184.125	51.63
184.506	98.43
184.887	99
185.268	122.96
185.648	152.61
186.029	196.79
186.41	200.77
186.791	220.14
187.171	274.52
187.552	389.96
187.932	393.94
188.313	466.06
188.694	484.22
189.074	478.26
189.455	508.9
189.835	513.16
190.216	541.8
190.596	534.71
190.977	578.93
191.357	573.26
191.737	595.36
192.118	578.64
192.498	616.04
192.878	644.35
193.258	623.68
193.639	651.99
194.019	642.94
194.399	661.33
194.779	687.37
195.159	663.03
195.54	682.28
195.92	691.33
196.3	663.6
196.68	698.97
197.06	724.99
197.44	726.97
197.82	794.8
198.2	786.61
198.58	775.87
198.959	811.75
199.339	838.01
199.719	848.45
200.099	855.51
200.479	862.57
200.858	850.15
201.238	857.49
201.618	860.31
201.998	846.2
202.377	860.87
202.757	859.75
203.136	884.58
203.516	934.22
203.896	951.98
204.275	1010.59
204.655	1079.84
205.034	1105.44
205.414	1173.48
205.793	1195.68
206.172	1249.88
206.552	1256.34
206.931	1271.22
207.31	1321.43
207.69	1325.92
208.069	1312.18
208.448	1318.35
208.827	1360.41
209.207	1337.7
209.586	1341.34
209.965	1404.96
210.344	1413.93
210.723	1472.17
211.102	1524.2
211.481	1575.09
211.86	1636.55
212.239	1724.47
212.618	1835.96
212.997	1916.68
213.376	1981.2
213.755	2070.1
214.134	2120.89
214.513	2201.87
214.891	2214.9
215.27	2274.73
215.649	2324
216.028	2321.51
216.406	2356.37
216.785	2361.63
217.164	2379.88
217.542	2423.01
217.921	2398.41
218.3	2394.81
218.678	2485.16
219.057	2536.79
219.435	2633.59
219.814	2728.89
220.192	2846.07
220.57	3005.61
220.949	3189.19
221.327	3368.53
221.705	3542.29
222.084	3728.46
222.462	3919.91
222.84	4060.3
223.218	4280.7
223.597	4395.95
223.975	4551.71
224.353	4688.92
224.731	4796.38
225.109	4952.23
225.487	5043.58
225.865	5054.29
226.243	5055.36
226.621	5118.25
226.999	5200.87
227.377	5251.64
227.755	5311.46
228.133	5332.54
228.511	5340.82
228.889	5545.54
229.266	5635.5
229.644	5875.67
230.022	6163.92
230.4	6349.45
230.777	6711.32
231.155	7019.98
231.533	7428.63
231.91	7813.09
232.288	8172.86
232.665	8546.27
233.043	8959.24
233.42	9273.66
233.798	9617.07
234.175	9899.97
234.553	10182.53
234.93	10371.43
235.307	10599.07
235.685	10797.61
236.062	10968.71
236.439	10957.02
236.816	11167.02
237.194	11322.75
237.571	11356.97
237.948	11419.56
238.325	11454.52
238.702	11512.27
239.079	11470.99
239.456	11531.51
239.833	11656.79
240.21	11680.82
240.587	11841.88
240.964	12113.58
241.341	12240.45
241.718	12586.81
242.095	12946.35
242.472	13276.39
242.849	13573.6
243.225	13987.15
243.602	14420.42
243.979	14799.61
244.356	15188.19
244.732	15513.13
245.109	16092.24
245.486	16349.31
245.862	16682.94
246.239	17057.07
246.615	17236.08
246.992	17477.03
247.368	17560.53
247.745	17723.77
248.121	17975.31
248.497	17903.25
248.874	18123.85
249.25	18246.45
249.626	18233.62
250.003	18249.9
250.379	18383.07
250.755	18205.01
251.131	18382.33
251.507	18200.08
251.884	18210.93
252.26	18183.06
252.636	18245.71
253.012	18196.87
253.388	18378.88
253.764	18475.04
254.14	18575.61
254.516	18738.52
254.892	19013.69
255.268	19333.8
255.643	19581.4
256.019	19890.17
256.395	20255.62
256.771	20698.57
257.147	21026.11
257.522	21357.24
257.898	21747.22
258.274	21982.93
258.649	22276.78
259.025	22595.38
259.4	22848.91
259.776	23121.56
260.151	23253.1
260.527	23448.42
260.902	23580.19
261.278	23743.12
261.653	23726.68
262.028	23638.84
262.404	23840.54
262.779	23737.23
263.154	23914.15
263.53	23878.32
263.905	23661.17
264.28	23522.28
264.655	23339.72
265.03	23130.15
265.405	23062.42
265.781	23013.83
266.156	22769.89
266.531	22744.12
266.906	22407.12
267.281	22440.02
267.655	22001.83
268.03	21930.63
268.405	21879.07
268.78	21926.46
269.155	21921.55
269.53	21844.45
269.904	21932.11
270.279	22115.99
270.654	22220.57
271.029	22190.62
271.403	22632.2
271.778	22776.02
272.152	22956.16
272.527	23142.91
272.901	23570.38
273.276	23958.32
273.65	24115.84
274.025	24264.54
274.399	24283.68
274.774	24604.38
275.148	24871.11
275.522	24957.97
275.897	25111.59
276.271	25033.8
276.645	25300.3
277.019	25384.23
277.393	25555.52
277.768	25351.34
278.142	25389.13
278.516	25300.54
278.89	25286.31
279.264	25119.68
279.638	25322.87
280.012	25214.9
280.386	24808.04
280.76	24891.47
281.133	24844.85
281.507	24676.27
281.881	24570.03
282.255	24362.93
282.629	24146.27
283.002	23765.7
283.376	23895.99
283.75	23533.82
284.123	23475.66
284.497	23236.65
284.87	23189.05
285.244	22977.51
285.618	22904.13
285.991	22607.66
286.364	22702.39
286.738	22704.6
287.111	22869.04
287.485	22751.97
287.858	22564.21
288.231	22671.22
288.605	22830.02
288.978	22942.42
289.351	22975.79
289.724	23041.32
290.097	23183.89
290.47	23336.04
290.843	23366.96
291.217	23524.49
291.59	23282.3
291.963	23645.22
292.336	23628.04
292.708	23687.67
293.081	23747.05
293.454	24001.01
293.827	23885.44
294.2	23792.2
294.573	23813.79
294.945	23837.84
295.318	23875.63
295.691	23863.6
296.064	23776.25
296.436	23760.55
296.809	23773.8
297.181	23786.31
297.554	23564.49
297.926	23559.09
298.299	23387.57
298.671	23607.92
299.044	23403.52
299.416	23238.37
299.788	23173.34
300.161	22979.23
300.533	22812.84
300.905	22939.96
301.278	22873.45
301.65	22703.38
302.022	22604.71
302.394	22322.93
302.766	22278.01
303.138	22012.14
303.51	22073.52
303.882	21998.64
304.254	21801.24
304.626	21884.23
304.998	21756.3
305.37	21368.54
305.742	21458.43
306.114	21368.54
306.485	21260.96
306.857	21279.13
307.229	21136.91
307.601	21077.46
307.972	21142.56
308.344	21144.52
308.716	21018.49
309.087	21178.91
309.459	21098.34
309.83	21238.6
310.202	21370.75
310.573	21389.17
310.945	21716.28
311.316	21634.02
311.687	21849.61
312.059	21792.15
312.43	21950.03
312.801	22195.53
313.172	22125.32
313.544	22245.85
313.915	22545.81
314.286	22551.45
314.657	22710.25
315.028	22649.87
315.399	22768.41
315.77	22878.36
316.141	22737.74
316.512	22996.16
316.883	22912.48
317.254	22931.13
317.625	22783.88
317.996	23001.31
318.366	22995.18
318.737	22904.62
319.108	22995.18
319.478	22791.24
319.849	22853.33
320.22	22798.36
320.59	22813.57
320.961	22573.05
321.331	22662.39
321.702	22322.19
322.072	22245.12
322.443	22209.03
322.813	22193.81
323.184	21911.97
323.554	21952.73
323.924	21816.46
324.295	21550.52
324.665	21490.6
325.035	21450.57
325.405	21129.05
325.775	21022.67
326.145	20893.68
326.515	20650.16
326.886	20441.97
327.256	20251.93
327.626	19898.29
327.995	19834.83
328.365	19572.79
328.735	19296.87
329.105	18882.4
329.475	18448.16
329.845	18003.2
330.215	18165.54
330.584	18433.12
330.954	19166.38
331.324	20148.17
331.693	20646.96
332.063	21029.55
332.432	21272.5
332.802	20950.68
333.171	20576.67
333.541	19950.19
333.91	19658.67
334.28	19515.45
334.649	19505.11
335.018	19292.44
335.388	19385.99
335.757	19420.69
336.126	19361.86
336.495	19492.32
336.865	19527.02
337.234	19371.71
337.603	19561.96
337.972	19559.26
338.341	19731.25
338.71	19831.38
339.079	19837.29
339.448	19991.76
339.817	20004.05
340.186	19980.69
340.554	20020.78
340.923	20175.46
341.292	20063.57
341.661	20186.28
342.029	20251.93
342.398	20230.29
342.767	20146.2
343.135	20387.4
343.504	20255.62
343.872	20417.14
344.241	20314.13
344.609	20292.99
344.978	20304.3
345.346	20489.66
345.715	20288.32
346.083	20152.59
346.451	20160.46
346.82	20131.44
347.188	20230.54
347.556	19944.53
347.924	19949.7
348.292	19884.52
348.66	19793.25
349.028	19789.56
349.396	19670.97
349.764	19666.05
350.132	19655.23
350.5	19565.41
350.868	19428.32
351.236	19428.82
351.604	19288.01
351.972	19287.76
352.34	19021.33
352.707	19044.48
353.075	18920.09
353.443	18749.85
353.81	18606.67
354.178	18517.93
354.545	18635.75
354.913	18446.68
355.28	18252.12
355.648	18232.64
356.015	18265.44
356.383	18037.5
356.75	17869.68
357.117	17870.67
357.485	17715.87
357.852	17557.57
358.219	17582.51
358.586	17436.02
358.954	17404.64
359.321	17292.93
359.688	17191.33
360.055	17069.18
360.422	17051.87
360.789	16844.07
361.156	16936.6
361.523	16845.8
361.89	16806.95
362.256	16905.18
362.623	16684.18
362.99	16711.41
363.357	16664.12
363.724	16720.32
364.09	16640.11
364.457	16640.35
364.823	16728.24
365.19	16736.9
365.557	16888.61
365.923	16809.17
366.29	16855.94
366.656	17011.31
367.022	17067.7
367.389	16969.01
367.755	16862.13
368.121	16948.97
368.488	17017.74
368.854	17020.96
369.22	16961.09
369.586	16907.41
369.952	16820.06
370.318	16777.25
370.684	16812.39
371.051	16919.53
371.416	16866.58
371.782	16921.02
372.148	16868.56
372.514	16867.57
372.88	16948.23
373.246	16914.34
373.612	17070.17
373.977	17123.59
374.343	17278.35
374.709	17458.5
375.074	17168.09
375.44	17146.34
375.806	17139.41
376.171	17158.45
376.537	17153.75
376.902	17194.55
377.268	17384.62
377.633	17410.57
377.998	17592.39
378.364	17867.21
378.729	17655.62
379.094	17581.53
379.459	17181.45
379.825	17167.11
380.19	17041.24
380.555	16829.47
380.92	16621.04
381.285	16547.99
381.65	16698.04
382.015	16717.35
382.38	16475.42
382.745	16341.88
383.11	16222.16
383.474	16293.05
383.839	16242.74
384.204	16143.57
384.569	16018.33
384.933	15928.77
385.298	15759.5
385.663	15793.76
386.027	15860.53
386.392	15923.06
386.756	15910.66
387.121	16078.35
387.485	16074.88
387.849	16341.38
388.214	15866.48
388.578	15599.58
388.942	15351.08
389.307	15487.78
389.671	15312.29
390.035	15361.02
390.399	15314.78
390.763	15436.84
391.127	15560.33
391.492	15804.43
391.856	16286.11
392.219	16417.7
392.583	16210.76
392.947	15532.26
393.311	15166.8
393.675	15071.5
394.039	14841.46
394.403	14807.08
394.766	14577.8
395.13	14444.37
395.494	14399.46
395.857	14441.13
396.221	14656.83
396.584	14849.43
396.948	15113.56
397.311	15528.03
397.675	15699.66
398.038	15700.16
398.401	15177.25
398.765	14758.75
399.128	14494.76
399.491	14105.6
399.854	14043.39
400.218	14123.84
400.581	13897.4
400.944	13844.89
401.307	13593.38
401.67	13711.03
402.033	13574.35
402.396	13638.95
402.759	13751.32
403.122	13736.56
403.485	13981.65
403.847	14153.31
404.21	14365.03
404.573	14540.4
404.936	14655.08
405.298	14403.2
405.661	13970.66
406.023	13729.3
406.386	13643.95
406.749	13547.8
407.111	13674.74
407.473	14043.64
407.836	14316.86
408.198	14388.98
408.561	14401.21
408.923	14365.03
409.285	14355.29
409.647	14188.53
410.009	13970.16
410.372	14001.4
410.734	13946.66
411.096	13963.41
411.458	14094.86
411.82	14338.57
412.182	14524.44
412.544	14492.26
412.906	14583.29
413.267	14532.92
413.629	14326.59
413.991	14048.63
414.353	14210.75
414.714	13935.91
415.076	13941.91
415.438	13992.9
415.799	14035.89
416.161	13827.38
416.522	13697.77
416.884	13711.54
417.245	13707.03
417.607	13696.77
417.968	13671.99
418.329	13846.14
418.691	13756.83
419.052	13868.14
419.413	14049.88
419.774	14213
420.135	14801.6
420.497	15243.91
420.858	15692.96
421.219	15566.54
421.58	15255.85
421.941	14692.22
422.302	14254.95
422.662	14159.81
423.023	13972.16
423.384	13833.88
423.745	14027.89
424.106	14077.37
424.466	14117.84
424.827	13700.02
425.187	13328.79
425.548	13029.47
425.909	12862.68
426.269	13012.9
426.63	13126.37
426.99	13447.35
427.35	13171.28
427.711	13327.79
428.071	13551.06
428.431	14066.88
428.792	14966.71
429.152	15907.43
429.512	15948.37
429.872	15602.56
430.232	15209.83
430.592	14279.66
430.952	13440.08
431.312	12841.82
431.672	12402.25
432.032	12419.63
432.392	12747.05
432.752	13978.16
433.111	14681
433.471	14235.22
433.831	13183.83
434.19	13136.15
434.55	13100.77
434.91	12713.35
435.269	13007.63
435.629	13081.44
435.988	13144.44
436.348	12658.77
436.707	12281.55
437.066	12304.74
437.426	12421.4
437.785	12597.88
438.144	12560.89
438.503	12234.9
438.862	12096.68
439.222	11911.86
439.581	11778.94
439.94	12053.27
440.299	12948.86
440.658	13590.37
441.017	13620.17
441.376	13326.03
441.734	12981.76
442.093	12889.82
442.452	13099.76
442.811	13323.28
443.169	13269.37
443.528	12728.19
443.887	12674.62
444.245	12659.53
444.604	12313.05
444.962	12193.3
445.321	12213.98
445.679	12327.67
446.038	12524.89
446.396	12127.96
446.754	11864.62
447.112	11781.47
447.471	11752.14
447.829	11568.47
448.187	11767.06
448.545	11793.85
448.903	11757.2
449.261	11687.14
449.619	11541.89
449.977	11527.96
450.335	11270.52
450.693	11287
451.051	11254.29
451.409	11362.04
451.766	11308.3
452.124	11017.74
452.482	10790.74
452.839	10661.97
453.197	10646.69
453.555	10561.37
453.912	10617.92
454.27	10976.33
454.627	11297.14
454.984	11254.03
455.342	10979.12
455.699	10725.1
456.056	10852.8
456.414	11137.33
456.771	11492.01
457.128	11666.65
457.485	11837.07
457.842	11689.93
458.199	11730.14
458.556	12011.36
458.913	12046.2
459.27	12191.78
459.627	11909.34
459.984	12005.3
460.341	12167.32
460.697	11810.28
461.054	11198.23
461.411	10743.93
461.767	10498.42
462.124	10543.53
462.481	10939.74
462.837	11213.45
463.194	11700.8
463.55	11551.26
463.907	12234.4
464.263	12588.32
464.619	13084.45
464.976	13497.2
465.332	13492.69
465.688	12767.67
466.044	11839.85
466.4	11560.37
466.756	11381.05
467.112	11421.08
467.468	11431.22
467.824	11250.74
468.18	10905.68
468.536	10847.97
468.892	10557.54
469.248	10447.95
469.604	10373.47
469.959	10410.71
470.315	10274.2
470.671	10354.34
471.026	10550.92
471.382	10734.77
471.737	10957.02
472.093	11238.56
472.448	11709.91
472.804	11894.94
473.159	12111.31
473.514	12001.01
473.87	12204.14
474.225	12990.55
474.58	13503.97
474.935	13373.92
475.29	13027.46
475.645	12906.4
476	12759.87
476.355	12636.38
476.71	12557.11
477.065	13193.61
477.42	13669.99
477.775	13578.1
478.13	13386.95
478.485	13535.78
478.839	13914.41
479.194	14554.36
479.549	14963.98
479.903	14806.59
480.258	14496.25
480.612	14954.27
480.967	15547.66
481.321	15474.61
481.675	14960.99
482.03	14391.23
482.384	14222.49
482.738	14340.32
483.093	14597.75
483.447	15171.78
483.801	16082.32
484.155	16495.73
484.509	21113.57
484.863	45814.81
485.217	56987.86
485.571	54998.77
485.925	33803.05
486.279	24807.31
486.632	21127.57
486.986	17938.05
487.34	15769.68
487.694	14816.05
488.047	14565.33
488.401	14535.91
488.754	14278.42
489.108	13907.4
489.461	13650.96
489.815	13286.17
490.168	13539.79
490.522	13643.2
490.875	13584.11
491.228	13397.98
491.581	13510.73
491.935	13490.19
492.288	13319.77
492.641	13505.22
492.994	13399.98
493.347	13668.74
493.7	13728.3
494.053	13612.91
494.406	13104.03
494.759	12678.9
495.111	13364.64
495.464	14566.83
495.817	15080.46
496.169	14318.85
496.522	13061.11
496.875	12226.58
497.227	12054.78
497.58	11995.2
497.932	12253.31
498.285	12458.92
498.637	12993.06
498.989	13372.66
499.342	13119.09
499.694	12631.1
500.046	12363.96
500.398	12966.19
500.751	13260.34
501.103	13271.62
501.455	13244.54
501.807	13261.84
502.159	13310.24
502.511	13372.41
502.862	13197.88
503.214	12892.84
503.566	12358.41
503.918	12021.21
504.27	12178.67
504.621	12237.43
504.973	12002.02
505.324	12209.18
505.676	12587.57
506.027	12575.23
506.379	11776.66
506.73	11425.39
507.082	11676.77
507.433	12074.47
507.784	12349.85
508.136	11982.83
508.487	11725.59
508.838	11505.43
509.189	11652.23
509.54	11810.28
509.891	11704.09
510.242	11679.81
510.593	11629.97
510.944	11445.15
511.295	11074.37
511.646	10945.07
511.996	11045.93
512.347	11283.71
512.698	11320.22
513.049	11156.61
513.399	11000.46
513.75	11180.21
514.1	10753.6
514.451	10392.86
514.801	10410.71
515.152	10723.06
515.502	10950.92
515.852	11212.94
516.202	11221.57
516.553	11007.32
516.903	10678.52
517.253	10391.33
517.603	10403.06
517.953	10506.58
518.303	10982.93
518.653	11276.35
519.003	11010.88
519.353	10383.17
519.703	9838.52
520.052	9788.06
520.402	9968.04
520.752	10248.16
521.102	9988.5
521.451	9762.18
521.801	9853.37
522.15	10107.91
522.5	10245.35
522.849	10335.46
523.199	10584.29
523.548	10631.67
523.897	10569.52
524.246	10243.57
524.596	9981.6
524.945	10001.29
525.294	10076.47
525.643	10095.13
525.992	10178.18
526.341	10277.27
526.69	10155.7
527.039	9919.93
527.388	9825.46
527.737	10513.46
528.086	11304.24
528.434	11708.14
528.783	11263.16
529.132	10755.89
529.48	10466.56
529.829	10373.98
530.177	10232.59
530.526	10045.79
530.874	10328.06
531.223	10275.48
531.571	10205.77
531.919	10316.57
532.268	10896.02
532.616	11725.84
532.964	12045.69
533.312	12129.48
533.66	12020.45
534.008	11993.18
534.356	12046.45
534.704	11908.33
535.052	11568.72
535.4	11111.18
535.748	10552.45
536.095	10033.26
536.443	10032.75
536.791	10420.92
537.139	10883.56
537.486	11367.36
537.834	11523.15
538.181	11686.38
538.529	11590.24
538.876	11656.03
539.223	11227.4
539.571	10833.98
539.918	10855.09
540.265	11283.71
540.613	11666.15
540.96	11348.35
541.307	11166
541.654	11221.31
542.001	11231.71
542.348	11251.75
542.695	11161.18
543.042	11457.82
543.388	11785.76
543.735	11825.95
544.082	11842.89
544.429	11775.4
544.775	11342.27
545.122	10608.49
545.469	10248.16
545.815	10305.34
546.162	10499.19
546.508	10888.9
546.854	11651.98
547.201	12511.8
547.547	12817.44
547.893	12247.01
548.24	11069.29
548.586	10076.73
548.932	9840.05
549.278	9708.87
549.624	9936.82
549.97	9664.26
550.316	9266.46
550.662	9056.15
551.008	9980.57
551.353	11137.33
551.699	11729.38
552.045	11130.73
552.391	10582.51
552.736	10527.22
553.082	10433.41
553.427	10145.74
553.773	9411.96
554.118	9333.83
554.464	9816.49
554.809	10574.36
555.154	10961.59
555.5	10966.42
555.845	10067.78
556.19	9558.83
556.535	9132.39
556.88	9304.01
557.225	9414.53
557.57	9116.42
557.915	8577.31
558.26	8392.23
558.605	8445.84
558.95	8701.65
559.295	9669.39
559.639	10513.46
559.984	11257.84
560.329	11279.65
560.673	11350.38
561.018	10559.84
561.362	10052.18
561.707	9600.91
562.051	9715.28
562.395	9954.22
562.74	10385.97
563.084	10610.28
563.428	11061.67
563.772	10953.71
564.117	11084.78
564.461	11023.58
564.805	10871.36
565.149	10966.42
565.493	10965.4
565.836	11314.89
566.18	11607.19
566.524	13269.62
566.868	14007.4
567.212	14536.41
567.555	14754.02
567.899	16206.79
568.242	17598.57
568.586	20093.82
568.929	22738.47
569.273	25467.42
569.616	25617.37
569.96	26533.42
570.303	28212.83
570.646	28835.57
570.989	30640.36
571.333	30125.85
571.676	27980.65
572.019	23704.6
572.362	26289.65
572.705	30621.91
573.048	33876.57
573.391	36075.05
573.733	37158.47
574.076	38041.94
574.419	36083.45
574.762	32385.62
575.104	28378.44
575.447	28778.79
575.789	32538.91
576.132	36625.54
576.474	37382.61
576.817	43877.77
577.159	49739.14
577.501	49351.41
577.844	42640.18
578.186	33577.36
578.528	30904.95
578.87	30740.78
579.212	32613.09
579.554	35075.58
579.896	34591.45
580.238	39011.25
580.58	51813.29
580.922	58087.97
581.264	60171.14
581.606	51960.48
581.947	45434.74
582.289	36510.57
582.631	29801.64
582.972	26171.58
583.314	26708.96
