Data from FLMS007011_10-58-54-803.txt Node
Date: Thu Apr 21 10:58:54 MDT 2016
User: lab_user
Spectrometer: FLMS00701
Autoset integration time: false
Trigger mode: 0
Integration Time (sec): 5.000000E-3
Scans to average: 10
Electric dark correction enabled: true
Nonlinearity correction enabled: true
Boxcar width: 0
XAxis mode: Wavelengths
Stop averaging: false
Number of Pixels in Spectrum: 2048
>>>>>Begin Spectral Data<<<<<
178.41	22.8
178.791	22.8
179.172	22.8
179.553	-64.93
179.934	-45.77
180.316	-45.2
180.697	-88.1
181.078	-62.07
181.459	-34.05
181.84	-24.34
182.221	-12.33
182.602	-19.48
182.983	23.66
183.364	4.81
183.744	44.79
184.125	49.07
184.506	93.03
184.887	112.14
185.268	125.54
185.648	167.17
186.029	196.23
186.41	173.15
186.791	257.17
187.171	266.28
187.552	390.83
187.932	412.42
188.313	433.43
188.694	444.22
189.074	481.12
189.455	507.78
189.835	532.74
190.216	533.31
190.596	579.51
190.977	558.82
191.357	555.14
191.737	584.61
192.118	604.72
192.498	612.09
192.878	646.63
193.258	628.23
193.639	655.41
194.019	668.99
194.399	704.36
194.779	673.8
195.159	693.33
195.54	684.27
195.92	715.11
196.3	710.3
196.68	701.25
197.06	725
197.44	728.4
197.82	746.49
198.2	753.28
198.58	801.31
198.959	782.38
199.339	799.62
199.719	823.62
200.099	862.87
200.479	838.02
200.858	892.49
201.238	878.95
201.618	922.96
201.998	912.24
202.377	873.87
202.757	885.16
203.136	902.65
203.516	928.31
203.896	955.66
204.275	973.98
204.655	995.39
205.034	1038.76
205.414	1058.19
205.793	1124.3
206.172	1159.73
206.552	1225.47
206.931	1265.9
207.31	1333.51
207.69	1325.38
208.069	1376.12
208.448	1408.06
208.827	1442.51
209.207	1444.19
209.586	1446.71
209.965	1468.54
210.344	1461.54
210.723	1504.08
211.102	1546.59
211.481	1550.51
211.86	1620.09
212.239	1626.51
212.618	1698.82
212.997	1764.36
213.376	1871.06
213.755	1920.04
214.134	2008.73
214.513	2129.23
214.891	2157.8
215.27	2262.84
215.649	2351.13
216.028	2401.74
216.406	2466.68
216.785	2516.65
217.164	2555.84
217.542	2600.8
217.921	2642.42
218.3	2622.85
218.678	2703.58
219.057	2713.22
219.435	2784.22
219.814	2832.35
220.192	2851.31
220.57	2933.45
220.949	3018.24
221.327	3180.45
221.705	3301.34
222.084	3422.86
222.462	3645.78
222.84	3779.84
223.218	3999.9
223.597	4207.22
223.975	4394.89
224.353	4577.57
224.731	4718.5
225.109	4912.3
225.487	5072.77
225.865	5343.23
226.243	5373.65
226.621	5510.4
226.999	5591.34
227.377	5730.69
227.755	5767.63
228.133	5917.86
228.511	5894.52
228.889	6055.41
229.266	6118.95
229.644	6234.54
230.022	6369
230.4	6437.09
230.777	6598.93
231.155	6893.23
231.533	7080.05
231.91	7382.13
232.288	7616.61
232.665	7949.19
233.043	8339.13
233.42	8622.06
233.798	9009.52
234.175	9443.83
234.553	9797.81
234.93	10095.15
235.307	10471.42
235.685	10705.26
236.062	10946.87
236.439	11185.56
236.816	11447.7
237.194	11734.7
237.571	11887.88
237.948	11906.32
238.325	12061.86
238.702	12092.65
239.079	12308.78
239.456	12320.88
239.833	12468
240.21	12526.92
240.587	12566.94
240.964	12709.6
241.341	12815.2
241.718	12973.24
242.095	13079.7
242.472	13214.2
242.849	13369.42
243.225	13720.31
243.602	14005.41
243.979	14122.35
244.356	14492.28
244.732	14899
245.109	15316.53
245.486	15660.44
245.862	15967.24
246.239	16351.31
246.615	16717.86
246.992	17125.08
247.368	17292.21
247.745	17607.97
248.121	18041.95
248.497	17999.76
248.874	18362.62
249.25	18640.45
249.626	18783.87
250.003	18807.03
250.379	19094.49
250.755	19106.31
251.131	19257.5
251.507	19147.43
251.884	19358.68
252.26	19295.9
252.636	19384.77
253.012	19319.78
253.388	19486.18
253.764	19586.59
254.14	19358.18
254.516	19402.25
254.892	19425.38
255.268	19682.31
255.643	19700.27
256.019	19801.63
256.395	19847.39
256.771	20217.03
257.147	20563.9
257.522	20677.69
257.898	21087.3
258.274	21301.25
258.649	21616.6
259.025	21835.14
259.4	22034.01
259.776	22479.79
260.151	22601.53
260.527	22975.32
260.902	23250.16
261.278	23387.09
261.653	23614.56
262.028	23681.06
262.404	23853.8
262.779	24038.07
263.154	24187.75
263.53	24377.67
263.905	24195.11
264.28	24186.28
264.655	24112.67
265.03	23925.2
265.405	24004.46
265.781	24008.14
266.156	23893.31
266.531	23845.7
266.906	23613.33
267.281	23682.78
267.655	23321.33
268.03	23232
268.405	22993.97
268.78	23027.1
269.155	23029.55
269.53	22676.64
269.904	22759.1
270.279	22715.66
270.654	22680.32
271.029	22577.24
271.403	22615.28
271.778	22570.12
272.152	22603.74
272.527	22751
272.901	22958.63
273.276	23215.32
273.65	23412.86
274.025	23516.16
274.399	23460.22
274.774	23803.01
275.148	24091.57
275.522	24241.98
275.897	24411.53
276.271	24433.37
276.645	24880.69
277.019	24942.53
277.393	25195.28
277.768	25262.52
278.142	25328.53
278.516	25301.29
278.89	25432.34
279.264	25477
279.638	25594.8
280.012	25573.7
280.386	25363.38
280.76	25412.71
281.133	25455.9
281.507	25242.15
281.881	25432.83
282.255	25227.92
282.629	24938.85
283.002	24805.85
283.376	24830.14
283.75	24668.44
284.123	24571.27
284.497	24384.54
284.87	24346.26
285.244	24204.19
285.618	24038.07
285.991	23713.45
286.364	23687.68
286.738	23562.29
287.111	23741.91
287.485	23339.24
287.858	23250.16
288.231	23241.82
288.605	23260.23
288.978	23211.39
289.351	23032.25
289.724	22970.9
290.097	22992
290.47	23017.77
290.843	22997.4
291.217	23020.72
291.59	22850.89
291.963	23179.49
292.336	23016.05
292.708	23141.7
293.081	23130.17
293.454	23443.04
293.827	23382.67
294.2	23230.29
294.573	23491.38
294.945	23453.59
295.318	23601.56
295.691	23689.4
296.064	23567.69
296.436	23538.25
296.809	23677.13
297.181	23670.26
297.554	23496.04
297.926	23591.49
298.299	23579.47
298.671	23848.65
299.044	23602.54
299.416	23543.4
299.788	23532.36
300.161	23384.15
300.533	23311.27
300.905	23499.72
301.278	23379.48
301.65	23356.17
302.022	23176.55
302.394	23074.95
302.766	23094.34
303.138	22793.95
303.51	22915.68
303.882	22762.54
304.254	22724.25
304.626	22716.64
304.998	22665.59
305.37	22243.9
305.742	22265.5
306.114	22176.39
306.485	22154.05
306.857	22225.49
307.229	21863.62
307.601	21852.81
307.972	21815.49
308.344	21715.07
308.716	21518.61
309.087	21568.96
309.459	21485.46
309.83	21540.47
310.202	21431.43
310.573	21608.74
310.945	21573.87
311.316	21454.02
311.687	21623.96
312.059	21462.62
312.43	21635.01
312.801	21790.94
313.172	21804.2
313.544	21693.21
313.915	22058.31
314.286	22051.68
314.657	22167.8
315.028	22189.65
315.399	22281.21
315.77	22533.3
316.141	22469.24
316.512	22620.19
316.883	22610.37
317.254	22720.57
317.625	22533.3
317.996	22890.16
318.366	22794.69
318.737	22736.28
319.108	22804.01
319.478	22815.3
319.849	22816.29
320.22	22869.05
320.59	22966.73
320.961	22746.09
321.331	22881.81
321.702	22484.7
322.072	22516.61
322.443	22621.41
322.813	22586.81
323.184	22376.21
323.554	22249.55
323.924	22342.83
324.295	22117.97
324.665	22001.11
325.035	21874.18
325.405	21776.94
325.775	21535.8
326.145	21479.81
326.515	21262.69
326.886	21058.55
327.256	21050.2
327.626	20781.15
327.995	20532.93
328.365	20385.2
328.735	20047.85
329.105	19646.63
329.475	19268.08
329.845	18716.35
330.215	18884.14
330.584	19246.66
330.954	20032.84
331.324	20894.68
331.693	21439.78
332.063	21776.94
332.432	21935.07
332.802	21692.48
333.171	21152.4
333.541	20325.21
333.91	20120.64
334.28	19851.81
334.649	19713.06
335.018	19600.61
335.388	19608.98
335.757	19528.02
336.126	19379.6
336.495	19473.38
336.865	19338.24
337.234	19223.27
337.603	19264.88
337.972	19361.88
338.341	19351.54
338.71	19528.75
339.079	19435.48
339.448	19574.53
339.817	19634.32
340.186	19585.11
340.554	19729.3
340.923	19839.27
341.292	19848.62
341.661	19882.56
342.029	19979.47
342.398	19978.49
342.767	19876.17
343.135	20118.42
343.504	20005.54
343.872	20159.25
344.241	20235.96
344.609	20228.83
344.978	20187.52
345.346	20293.25
345.715	20306.03
346.083	20153.34
346.451	20332.09
346.82	20221.21
347.188	20249.49
347.556	20228.09
347.924	20167.36
348.292	20097.77
348.66	20143.75
349.028	20036.04
349.396	19926.35
349.764	19941.1
350.132	19975.78
350.5	19904.45
350.868	19817.87
351.236	19741.35
351.604	19626.94
351.972	19686.73
352.34	19424.65
352.707	19466.98
353.075	19495.78
353.443	19221.55
353.81	19190.28
354.178	19146.2
354.545	19164.18
354.913	19047.7
355.28	18878.23
355.648	18810.72
356.015	18801.36
356.383	18660.41
356.75	18497.73
357.117	18562.56
357.485	18570.2
357.852	18322.92
358.219	18318.72
358.586	18233.88
358.954	17984.7
359.321	17959.04
359.688	17880.31
360.055	17779.83
360.422	17758.6
360.789	17607.23
361.156	17607.72
361.523	17451.85
361.89	17384.39
362.256	17459.51
362.623	17187.89
362.99	17181.46
363.357	17123.35
363.724	17112.23
364.09	17074.89
364.457	16917.07
364.823	17117.42
365.19	16985.1
365.557	17062.52
365.923	17007.86
366.29	16932.16
366.656	16983.37
367.022	17069.2
367.389	16943.79
367.755	16789.14
368.121	16824.53
368.488	16870.06
368.854	16955.17
369.22	16794.59
369.586	16706.22
369.952	16708.7
370.318	16593.82
370.684	16614.62
371.051	16740.63
371.416	16609.17
371.782	16692.36
372.148	16764.39
372.514	16671.56
372.88	16628.24
373.246	16740.63
373.612	16934.39
373.977	17032.1
374.343	17095.16
374.709	17301.85
375.074	17085.27
375.44	17059.3
375.806	17007.86
376.171	17275.4
376.537	17312.72
376.902	17269.96
377.268	17496.32
377.633	17419.97
377.998	17606.24
378.364	17993.09
378.729	17834.89
379.094	17687.98
379.459	17335.46
379.825	17273.17
380.19	17305.8
380.555	17056.09
380.92	16746.57
381.285	16737.41
381.65	16929.44
382.015	16876
382.38	16855.46
382.745	16656.21
383.11	16500.45
383.474	16629.72
383.839	16467.26
384.204	16443.48
384.569	16391.94
384.933	16292.08
385.298	16192.43
385.663	16168.13
386.027	16249.2
386.392	16278.69
386.756	16442.24
387.121	16460.32
387.485	16635.17
387.849	16709.19
388.214	16390.95
388.578	16071.42
388.942	15909.92
389.307	15909.68
389.671	15793.03
390.035	15892.06
390.399	15931.26
390.763	16019.83
391.127	16145.57
391.492	16631.95
391.856	16863.88
392.219	17127.31
392.583	16901.73
392.947	16207.55
393.311	15705.39
393.675	15629.9
394.039	15443.06
394.403	15398.57
394.766	15170.3
395.13	15186.22
395.494	15107.35
395.857	15124.02
396.221	15253.37
396.584	15505.69
396.948	15672.61
397.311	16090.52
397.675	16343.62
398.038	16233.08
398.401	15774.91
398.765	15233.97
399.128	14817.31
399.491	14589.78
399.854	14485.04
400.218	14484.55
400.581	14351.56
400.944	14199.28
401.307	13890.16
401.67	13875.66
402.033	13828.89
402.396	13832.14
402.759	13838.65
403.122	13897.17
403.485	13965.17
403.847	14059.39
404.21	14412.95
404.573	14569.59
404.936	14593.27
405.298	14276.43
405.661	13940.17
406.023	13637.96
406.386	13554.08
406.749	13500.98
407.111	13433.83
407.473	14002.91
407.836	14096.12
408.198	14213.02
408.561	14243.98
408.923	14264.95
409.285	14213.76
409.647	14034.15
410.009	13811.38
410.372	13938.92
410.734	13827.89
411.096	13857.65
411.458	14030.91
411.82	14176.55
412.182	14363.79
412.544	14427.67
412.906	14474.07
413.267	14457.11
413.629	14288.42
413.991	14147.83
414.353	14212.52
414.714	13963.17
415.076	13938.67
415.438	14050.9
415.799	14232.99
416.161	13918.17
416.522	13740.08
416.884	13845.4
417.245	13731.57
417.607	13829.89
417.968	13833.64
418.329	13921.92
418.691	14012.66
419.052	13905.17
419.413	14191.29
419.774	14340.33
420.135	15034.93
420.497	15459.47
420.858	15925.06
421.219	15884.37
421.58	15535.75
421.941	15017.26
422.302	14511.73
422.662	14506.74
423.023	14248.97
423.384	14179.05
423.745	14346.07
424.106	14309.13
424.466	14452.12
424.827	14098.12
425.187	13654.73
425.548	13392.98
425.909	13212.94
426.269	13385.46
426.63	13511.75
426.99	13805.38
427.35	13598.15
427.711	13707.8
428.071	13977.17
428.431	14565.35
428.792	15507.18
429.152	16433.81
429.512	16448.93
429.872	16093.99
430.232	15628.65
430.592	14736.59
430.952	13902.42
431.312	13271.13
431.672	12829.52
432.032	12853.4
432.392	13330.56
432.752	14559.36
433.111	15257.35
433.471	14789.41
433.831	13734.32
434.19	13562.84
434.55	13638.21
434.91	13256.59
435.269	13611.42
435.629	13615.93
435.988	13609.92
436.348	13316.77
436.707	12842.34
437.066	12870.49
437.426	13055.6
437.785	13070.16
438.144	13158
438.503	12923.25
438.862	12726.19
439.222	12438.79
439.581	12279.8
439.94	12634.63
440.299	13589.39
440.658	14201.03
441.017	14150.58
441.376	13832.89
441.734	13522.77
442.093	13432.08
442.452	13672.25
442.811	13816.13
443.169	13731.32
443.528	13269.13
443.887	13192.62
444.245	12977.25
444.604	12732.48
444.962	12578.02
445.321	12558.64
445.679	12715.13
446.038	12812.18
446.396	12401.01
446.754	12160.02
447.112	12072.21
447.471	11877.27
447.829	11855.28
448.187	11952.8
448.545	11928.3
448.903	11831.53
449.261	11794.37
449.619	11672.23
449.977	11545.7
450.335	11249.23
450.693	11352.17
451.051	11322.51
451.409	11325.55
451.766	11315.41
452.124	11047.21
452.482	10777.53
452.839	10640.34
453.197	10550.93
453.555	10506.59
453.912	10564.18
454.27	10992.35
454.627	11253.79
454.984	11172.62
455.342	10870.36
455.699	10723.07
456.056	10738.34
456.414	11168.05
456.771	11554.31
457.128	11646.18
457.485	11786.28
457.842	11616.06
458.199	11706.38
458.556	12054.29
458.913	11956.08
459.27	12269.46
459.627	11832.29
459.984	11947.49
460.341	12178.43
460.697	11803.98
461.054	11229.19
461.411	10758.95
461.767	10505.57
462.124	10671.66
462.481	10968.21
462.837	11266.22
463.194	11832.03
463.55	11691.2
463.907	12342.55
464.263	12690.73
464.619	13284.17
464.976	13699.79
465.332	13653.48
465.688	12820.47
466.044	11953.3
466.4	11720.04
466.756	11505.95
467.112	11540.13
467.468	11508.99
467.824	11354.7
468.18	11094.69
468.536	11064.48
468.892	10721.29
469.248	10678.53
469.604	10589.91
469.959	10556.79
470.315	10497.93
470.671	10617.42
471.026	10739.36
471.382	10956.27
471.737	11188.35
472.093	11457.07
472.448	11829.51
472.804	12153.46
473.159	12345.58
473.514	12350.11
473.87	12525.66
474.225	13363.15
474.58	13822.14
474.935	13823.89
475.29	13385.71
475.645	13269.13
476	13185.35
476.355	12989.56
476.71	12882.8
477.065	13623.94
477.42	14013.91
477.775	13931.92
478.13	13763.6
478.485	13970.92
478.839	14250.47
479.194	14970.96
479.549	15529.29
479.903	15280.48
480.258	15023.48
480.612	15490.78
480.967	16227.38
481.321	16205.57
481.675	15389.87
482.03	14902.24
482.384	14864.14
482.738	15023.98
483.093	15140.94
483.447	15823.31
483.801	16824.78
484.155	17251.17
484.509	22359.03
484.863	48352.77
485.217	59174.01
485.571	56813.47
485.925	35024.48
486.279	25930.8
486.632	21966.25
486.986	18745.43
487.34	16432.82
487.694	15527.8
488.047	15276.5
488.401	15284.96
488.754	15001.58
489.108	14482.55
489.461	14224.75
489.815	13993.92
490.168	14208.02
490.522	14321.36
490.875	14237.98
491.228	14039.9
491.581	14240.48
491.935	14064.64
492.288	14020.16
492.641	14195.04
492.994	14117.86
493.347	14390.24
493.7	14349.07
494.053	14276.93
494.406	13769.1
494.759	13310
495.111	14083.38
495.464	15371.98
495.817	15807.67
496.169	14982.91
496.522	13683.27
496.875	12813.44
497.227	12595.38
497.58	12558.38
497.932	12895.86
498.285	13035.76
498.637	13605.41
498.989	14063.14
499.342	13798.87
499.694	13168.04
500.046	12885.56
500.398	13520.51
500.751	13777.11
501.103	13857.4
501.455	13792.62
501.807	13832.64
502.159	13657.24
502.511	13804.88
502.862	13622.94
503.214	13248.31
503.566	12722.67
503.918	12458.94
504.27	12525.41
504.621	12496.71
504.973	12238.45
505.324	12424.43
505.676	12850.13
506.027	12864.2
506.379	11919.71
506.73	11727.62
507.082	11870.7
507.433	12286.6
507.784	12469.26
508.136	12103.75
508.487	11857.05
508.838	11637.57
509.189	11738.75
509.54	11998.75
509.891	11823.44
510.242	11732.68
510.593	11704.1
510.944	11424.14
511.295	11161.7
511.646	10984.73
511.996	11102.31
512.347	11290.31
512.698	11289.04
513.049	11186.57
513.399	11019.53
513.75	11068.03
514.1	10826.37
514.451	10388.79
514.801	10407.67
515.152	10716.71
515.502	10925.52
515.852	11189.11
516.202	11191.9
516.553	10984.98
516.903	10660.96
517.253	10396.96
517.603	10342.87
517.953	10493.59
518.303	11025.37
518.653	11243.14
519.003	11015.72
519.353	10346.19
519.703	9912.01
520.052	9819.84
520.402	10104.86
520.752	10195.06
521.102	10032.77
521.451	9871.56
521.801	9986.47
522.15	10163.38
522.5	10293.36
522.849	10386.24
523.199	10631.68
523.548	10793.05
523.897	10569.02
524.246	10293.62
524.596	10028.93
524.945	10190.2
525.294	10237.96
525.643	10271.92
525.992	10346.95
526.341	10413.79
526.69	10267.07
527.039	10043.76
527.388	9894.09
527.737	10633.46
528.086	11391.45
528.434	11897.48
528.783	11352.17
529.132	10950.68
529.48	10672.93
529.829	10436.23
530.177	10386.5
530.526	10286.21
530.874	10537.94
531.223	10487.22
531.571	10445.92
531.919	10471.67
532.268	11133.03
532.616	11999.01
532.964	12384.63
533.312	12410.07
533.66	12256.1
534.008	12286.6
534.356	12325.42
534.704	12168.59
535.052	11794.63
535.4	11349.89
535.748	10751.58
536.095	10233.88
536.443	10259.66
536.791	10694.57
537.139	11154.09
537.486	11705.87
537.834	11913.9
538.181	11954.06
538.529	11969.21
538.876	11907.58
539.223	11580.13
539.571	11180.74
539.918	11191.14
540.265	11622.64
540.613	11941.18
540.96	11729.65
541.307	11574.31
541.654	11563.17
542.001	11605.44
542.348	11604.17
542.695	11493.79
543.042	11861.85
543.388	12100.73
543.735	12228.36
544.082	12280.3
544.429	12175.91
544.775	11645.67
545.122	10996.41
545.469	10633.46
545.815	10576.67
546.162	10811.36
546.508	11329.61
546.854	12064.13
547.201	13081.96
547.547	13269.38
547.893	12713.87
548.24	11470.24
548.586	10499.2
548.932	10178.96
549.278	10121.22
549.624	10320.93
549.97	10071.89
550.316	9613.5
550.662	9446.65
551.008	10402.06
551.353	11675.02
551.699	12236.43
552.045	11614.55
552.391	10990.06
552.736	10938.99
553.082	10810.09
553.427	10590.68
553.773	9794.48
554.118	9801.14
554.464	10311.74
554.809	11129.73
555.154	11442.63
555.5	11406.66
555.845	10593.22
556.19	10013.58
556.535	9601.95
556.88	9864.91
557.225	9840.84
557.57	9562.95
557.915	9053.85
558.26	8869.76
558.605	8827.95
558.95	9194.44
559.295	10196.08
559.639	11004.29
559.984	11841.64
560.329	11965.42
560.673	11867.16
561.018	11126.93
561.362	10559.34
561.707	10064.98
562.051	10198.12
562.395	10463.26
562.74	10952.97
563.084	11209.66
563.428	11648.45
563.772	11527.22
564.117	11747.6
564.461	11688.93
564.805	11375.23
565.149	11665.66
565.493	11579.62
565.836	11987.14
566.18	12281.31
566.524	14035.9
566.868	14863.89
567.212	15329.46
567.555	15546.43
567.899	17241.04
568.242	18591.15
568.586	21172.79
568.929	24123.22
569.273	26914.24
569.616	27162.25
569.96	28040.36
570.303	29660.97
570.646	30477.22
570.989	32376.52
571.333	31635.74
571.676	29244.9
572.019	25056.63
572.362	27841.61
572.705	32268.35
573.048	35709.62
573.391	38154.86
573.733	39112.89
574.076	40156.75
574.419	37855.3
574.762	33901.99
575.104	29628.26
575.447	30275.2
575.789	34149.7
576.132	38278.67
576.474	39089.59
576.817	45824.19
577.159	51865.41
577.501	51166.2
577.844	44301.56
578.186	34882.76
578.528	32088.98
578.87	31894.36
579.212	33948.37
579.554	36426.04
579.896	35896.9
580.238	40281.39
580.58	53268.19
580.922	59671.86
581.264	61537.95
581.606	53194.47
581.947	46556.18
582.289	37360.6
582.631	30221.57
582.972	26791.96
583.314	27220.69
583.655	29033.47
583.997	34951.15
