Data from FLMS007011_11-00-03-469.txt Node
Date: Thu Apr 21 11:00:03 MDT 2016
User: lab_user
Spectrometer: FLMS00701
Autoset integration time: false
Trigger mode: 0
Integration Time (sec): 5.000000E-3
Scans to average: 10
Electric dark correction enabled: true
Nonlinearity correction enabled: true
Boxcar width: 0
XAxis mode: Wavelengths
Stop averaging: false
Number of Pixels in Spectrum: 2048
>>>>>Begin Spectral Data<<<<<
178.41	25.85
178.791	25.85
179.172	25.85
179.553	-57.88
179.934	-53.87
180.316	-64.17
180.697	-71.32
181.078	-43.3
181.459	-72.46
181.84	-8.14
182.221	-34.72
182.602	-17
182.983	-6.14
183.364	30.99
183.744	59.83
184.125	71.24
184.506	86.37
184.887	102.63
185.268	152.25
185.648	179.04
186.029	161.37
186.41	185.6
186.791	222.06
187.171	292.65
187.552	418.86
187.932	421.41
188.313	445.55
188.694	456.62
189.074	481.59
189.455	500.31
189.835	508.26
190.216	523.57
190.596	532.93
190.977	566.95
191.357	585.93
191.737	581.68
192.118	595.56
192.498	621.62
192.878	626.44
193.258	630.97
193.639	632.1
194.019	658.99
194.399	653.61
194.779	656.73
195.159	665.22
195.54	664.65
195.92	684.18
196.3	699.17
196.68	715.29
197.06	731.98
197.44	741.31
197.82	737.63
198.2	796.13
198.58	831.15
198.959	848.94
199.339	839.34
199.719	846.96
200.099	858.82
200.479	837.08
200.858	851.48
201.238	816.47
201.618	828.61
201.998	805.46
202.377	822.4
202.757	890.99
203.136	922.3
203.516	928.22
203.896	969.1
204.275	998.96
204.655	1067.38
205.034	1112.68
205.414	1175.65
205.793	1231.84
206.172	1245.31
206.552	1284.61
206.931	1290.5
207.31	1316.31
207.69	1321.64
208.069	1325.28
208.448	1301.44
208.827	1310.14
209.207	1295.55
209.586	1309.02
209.965	1375.18
210.344	1381.63
210.723	1427.01
211.102	1496.99
211.481	1580.6
211.86	1648.48
212.239	1709.88
212.618	1842.84
212.997	1907.42
213.376	2043.64
213.755	2113.6
214.134	2175.46
214.513	2177.4
214.891	2276.59
215.27	2324.48
215.649	2362.1
216.028	2352.98
216.406	2348.55
216.785	2355.47
217.164	2354.36
217.542	2325.86
217.921	2385.33
218.3	2373.44
218.678	2441.17
219.057	2490.33
219.435	2597.4
219.814	2696.6
220.192	2848.75
220.57	2991.54
220.949	3194.31
221.327	3394.12
221.705	3626.37
222.084	3808.28
222.462	4007.67
222.84	4153.59
223.218	4443.07
223.597	4555.14
223.975	4687.77
224.353	4795.5
224.731	4913.82
225.109	5030.92
225.487	5067.06
225.865	5078.57
226.243	5109.08
226.621	5099.18
226.999	5144.12
227.377	5197.86
227.755	5162.3
228.133	5218.17
228.511	5317.79
228.889	5455.95
229.266	5589.12
229.644	5859.67
230.022	6124.15
230.4	6388.71
230.777	6776.47
231.155	7141.54
231.533	7531.46
231.91	7951.19
232.288	8473.73
232.665	8827.09
233.043	9157.29
233.42	9459.15
233.798	9870.97
234.175	10218.21
234.553	10474.14
234.93	10648.4
235.307	10876.63
235.685	11026.81
236.062	11197.9
236.439	11230.12
236.816	11443.05
237.194	11429.12
237.571	11464.84
237.948	11404.8
238.325	11519.29
238.702	11410.12
239.079	11500.29
239.456	11470.16
239.833	11594.72
240.21	11778.61
240.587	11758.14
240.964	11997.66
241.341	12260.05
241.718	12733.91
242.095	12908.59
242.472	13318.95
242.849	13732.49
243.225	14319.28
243.602	14725.04
243.979	15021.41
244.356	15534.67
244.732	16001.39
245.109	16426.05
245.486	16849.69
245.862	17179.65
246.239	17409.76
246.615	17669.38
246.992	18004.61
247.368	18116.88
247.745	18321.35
248.121	18439.46
248.497	18411.11
248.874	18538.32
249.25	18698.03
249.626	18532.65
250.003	18581.71
250.379	18705.67
250.755	18478.17
251.131	18440.94
251.507	18305.08
251.884	18298.17
252.26	18214.07
252.636	18276.72
253.012	18218.26
253.388	18375.85
253.764	18513.18
254.14	18586.64
254.516	18828.63
254.892	19072
255.268	19400.44
255.643	19658.36
256.019	20143.43
256.395	20522.77
256.771	20917.94
257.147	21367.24
257.522	21672.01
257.898	22162.07
258.274	22417.61
258.649	22874.37
259.025	23200.27
259.4	23409.83
259.776	23733.24
260.151	23907.21
260.527	24139.82
260.902	24303.48
261.278	24282.14
261.653	24348.39
262.028	24396.23
262.404	24490.7
262.779	24356.48
263.154	24405.8
263.53	24393.53
263.905	24050.51
264.28	24038.24
264.655	23897.15
265.03	23475.59
265.405	23486.64
265.781	23210.33
266.156	23058.67
266.531	23002.72
266.906	22595.81
267.281	22589.92
267.655	22203.81
268.03	22111.26
268.405	21942.1
268.78	21990.72
269.155	22010.6
269.53	21924.18
269.904	22114.69
270.279	22331.7
270.654	22484.87
271.029	22447.31
271.403	22882.71
271.778	23010.08
272.152	23232.66
272.527	23519.03
272.901	23968.31
273.276	24340.78
273.65	24548.12
274.025	24884.04
274.399	24922.81
274.774	25274.46
275.148	25492.38
275.522	25449.19
275.897	25630.06
276.271	25684.3
276.645	25999.2
277.019	26081.43
277.393	26093.21
277.768	26036.51
278.142	26023.25
278.516	25947.41
278.89	25871.32
279.264	25962.38
279.638	25894.15
280.012	25767.26
280.386	25323.05
280.76	25329.19
281.133	25409.68
281.507	25152.74
281.881	25006.98
282.255	24880.85
282.629	24595.72
283.002	24315.51
283.376	24201.41
283.75	23840.22
284.123	23812.74
284.497	23452.77
284.87	23368.61
285.244	23226.77
285.618	23112.17
285.991	22898.17
286.364	22839.52
286.738	22946.77
287.111	22981.86
287.485	22878.54
287.858	22846.88
288.231	22975.23
288.605	23009.84
288.978	23228.49
289.351	23164.44
289.724	23331.55
290.097	23582.09
290.47	23604.66
290.843	23763.91
291.217	23875.8
291.59	23780.35
291.963	24109.15
292.336	24157.73
292.708	24227.91
293.081	24247.78
293.454	24526.04
293.827	24359.67
294.2	24342.74
294.573	24484.32
294.945	24257.6
295.318	24501.74
295.691	24438.93
296.064	24347.16
296.436	24324.09
296.809	24475.24
297.181	24245.09
297.554	24137.61
297.926	24101.79
298.299	24070.38
298.671	24218.83
299.044	23858.14
299.416	23783.79
299.788	23677.54
300.161	23537.92
300.533	23452.53
300.905	23536.69
301.278	23362.23
301.65	23282.72
302.022	23082.97
302.394	22784.05
302.766	22745.52
303.138	22454.43
303.51	22518.25
303.882	22211.66
304.254	22158.64
304.626	22070.01
304.998	21957.57
305.37	21517.55
305.742	21637.88
306.114	21587.78
306.485	21550.95
306.857	21564.95
307.229	21312.96
307.601	21327.45
307.972	21349.56
308.344	21408.75
308.716	21353.98
309.087	21479.24
309.459	21301.42
309.83	21487.1
310.202	21673.98
310.573	21782.76
310.945	21941.12
311.316	21850.28
311.687	22241.61
312.059	22138.02
312.43	22379.07
312.801	22425.96
313.172	22452.71
313.544	22588.69
313.915	22891.3
314.286	22923.21
314.657	23059.65
315.028	22976.46
315.399	23145.79
315.77	23405.66
316.141	23350.45
316.512	23391.92
316.883	23440.5
317.254	23451.79
317.625	23198.3
317.996	23463.57
318.366	23455.47
318.737	23364.92
319.108	23486.39
319.478	23301.12
319.849	23277.32
320.22	23281.49
320.59	23275.6
320.961	23099.65
321.331	23118.55
321.702	22909.95
322.072	22763.68
322.443	22849.34
322.813	22701.1
323.184	22626.49
323.554	22391.84
323.924	22297.33
324.295	22175.58
324.665	21831.13
325.035	21957.57
325.405	21710.81
325.775	21405.8
326.145	21364.3
326.515	21152.31
326.886	20910.08
327.256	20747.9
327.626	20371.84
327.995	20127.44
328.365	19945.94
328.735	19706.09
329.105	19209.89
329.475	18666
329.845	18303.6
330.215	18460.17
330.584	18837.25
330.954	19542.95
331.324	20415.6
331.693	20886.73
332.063	21170
332.432	21543.83
332.802	21216.92
333.171	20866.58
333.541	20114.16
333.91	19969.31
334.28	19752.34
334.649	19728.23
335.018	19672.63
335.388	19740.29
335.757	19705.6
336.126	19634.24
336.495	19765.63
336.865	19691.57
337.234	19824.92
337.603	19799.83
337.972	19881.25
338.341	20071.86
338.71	20153.02
339.079	20202.69
339.448	20376.51
339.817	20379.21
340.186	20388.8
340.554	20461.07
340.923	20590.36
341.292	20338.9
341.661	20603.64
342.029	20755.02
342.398	20583.48
342.767	20563.08
343.135	20725.53
343.504	20636.82
343.872	20868.06
344.241	20811.54
344.609	20659.43
344.978	20655.99
345.346	20819.16
345.715	20668.77
346.083	20607.32
346.451	20611.5
346.82	20463.04
347.188	20548.83
347.556	20434.77
347.924	20525.97
348.292	20268.58
348.66	20283.09
349.028	20121.54
349.396	20163.84
349.764	20149.33
350.132	20079.49
350.5	20062.52
350.868	19949.38
351.236	19941.27
351.604	19724.05
351.972	19717.65
352.34	19434.9
352.707	19399.46
353.075	19381.98
353.443	19132.82
353.81	19068.55
354.178	18956.24
354.545	18941.7
354.913	18805.71
355.28	18630.51
355.648	18676.59
356.015	18505.29
356.383	18503.81
356.75	18236.27
357.117	18175.09
357.485	18074.69
357.852	17996.71
358.219	17928.85
358.586	17839.74
358.954	17750.62
359.321	17639.25
359.688	17510.81
360.055	17448.06
360.422	17373.93
360.789	17226.87
361.156	17202.89
361.523	17077.52
361.89	16998.13
362.256	17188.3
362.623	16967.95
362.99	17058.73
363.357	16955.58
363.724	16991.21
364.09	16922.68
364.457	16921.44
364.823	17151.46
365.19	17015.2
365.557	17203.87
365.923	17163.08
366.29	17180.63
366.656	17203.87
367.022	17400.37
367.389	17330.19
367.755	17222.17
368.121	17299.04
368.488	17412.48
368.854	17324.25
369.22	17281
369.586	17217.97
369.952	17166.54
370.318	17176.93
370.684	17231.32
371.051	17257.02
371.416	17165.55
371.782	17286.44
372.148	17246.89
372.514	17158.88
372.88	17184.1
373.246	17290.39
373.612	17481.66
373.977	17432.49
374.343	17548.11
374.709	17819
375.074	17513.28
375.44	17460.16
375.806	17415.94
376.171	17592.32
376.537	17613.32
376.902	17574.29
377.268	17829.62
377.633	17781.73
377.998	17957.72
378.364	18233.31
378.729	18124.52
379.094	17999.18
379.459	17534.53
379.825	17499.69
380.19	17473.51
380.555	17164.56
380.92	16976.86
381.285	16916
381.65	17035.23
382.015	17117.58
382.38	16926.14
382.745	16720.99
383.11	16645.49
383.474	16670.99
383.839	16580.86
384.204	16534.3
384.569	16420.35
384.933	16356.18
385.298	16212.92
385.663	16177.97
386.027	16158.38
386.392	16314.3
386.756	16323.47
387.121	16555.6
387.485	16624.19
387.849	16621.72
388.214	16292.74
388.578	16072.58
388.942	15853.26
389.307	15828.94
389.671	15665.08
390.035	15786.74
390.399	15717.72
390.763	15802.38
391.127	16008.34
391.492	16391.37
391.856	16680.39
392.219	16796.48
392.583	16617.01
392.947	15932.17
393.311	15489.7
393.675	15312.97
394.039	15175.19
394.403	15079.9
394.766	14912.12
395.13	14858.82
395.494	14762.67
395.857	14802.78
396.221	15022.16
396.584	15199.07
396.948	15439.75
397.311	15870.39
397.675	16140.77
398.038	15940.86
398.401	15503.86
398.765	15130.16
399.128	14796.55
399.491	14433.82
399.854	14343.99
400.218	14453.53
400.581	14271.36
400.944	14140.5
401.307	13887.33
401.67	13950.34
402.033	13947.09
402.396	13915.84
402.759	13954.09
403.122	14080.55
403.485	14283.09
403.847	14465.01
404.21	14727.54
404.573	14920.09
404.936	14998.51
405.298	14623.11
405.661	14380.93
406.023	14036.32
406.386	13993.83
406.749	13886.58
407.111	13853.07
407.473	14422.35
407.836	14615.63
408.198	14745.98
408.561	14746.22
408.923	14775.62
409.285	14691.9
409.647	14519.88
410.009	14258.62
410.372	14412.87
410.734	14316.79
411.096	14341
411.458	14426.84
411.82	14613.38
412.182	14761.67
412.544	14863.31
412.906	14851.35
413.267	14853.84
413.629	14604.66
413.991	14409.87
414.353	14434.57
414.714	14148
415.076	14264.37
415.438	14389.91
415.799	14290.08
416.161	14165.98
416.522	14045.57
416.884	13980.84
417.245	14021.08
417.607	13950.84
417.968	13984.58
418.329	14031.57
418.691	14140.75
419.052	14136.76
419.413	14315.54
419.774	14537.83
420.135	15044.56
420.497	15656.64
420.858	16104.82
421.219	15988.99
421.58	15502.87
421.941	15135.14
422.302	14587.45
422.662	14555.04
423.023	14283.34
423.384	14232.91
423.745	14240.4
424.106	14311.05
424.466	14509.9
424.827	14049.81
425.187	13630.62
425.548	13269.04
425.909	13212.86
426.269	13397.16
426.63	13519.93
426.99	13878.58
427.35	13633.37
427.711	13717.47
428.071	13880.58
428.431	14492.44
428.792	15460.13
429.152	16390.87
429.512	16401.28
429.872	16038.6
430.232	15571.94
430.592	14732.52
430.952	13776.77
431.312	13138.59
431.672	12758.3
432.032	12784.95
432.392	13231.17
432.752	14490.45
433.111	15084.13
433.471	14670.72
433.831	13537.21
434.19	13493.88
434.55	13464.06
434.91	12978.68
435.269	13388.89
435.629	13444.02
435.988	13585.55
436.348	13114.75
436.707	12686.37
437.066	12590.52
437.426	12837.48
437.785	12852.56
438.144	12928.19
438.503	12631.03
438.862	12427.37
439.222	12204.32
439.581	12062.03
439.94	12361.12
440.299	13275.56
440.658	13947.34
441.017	13996.58
441.376	13625.11
441.734	13399.66
442.093	13220.64
442.452	13409.44
442.811	13626.86
443.169	13607.83
443.528	13135.33
443.887	12950.04
444.245	12982.95
444.604	12688.13
444.962	12472.7
445.321	12608.63
445.679	12651.16
446.038	12835.72
446.396	12493.6
446.754	12214.66
447.112	12109.22
447.471	11979.48
447.829	11883.75
448.187	11925.43
448.545	12052.94
448.903	12015.84
449.261	12013.06
449.619	11838.01
449.977	11798.33
450.335	11641.03
450.693	11540.81
451.051	11600.04
451.409	11523.08
451.766	11569.16
452.124	11321.67
452.482	11079.12
452.839	10895.7
453.197	10832.38
453.555	10836.45
453.912	10826.28
454.27	11291.5
454.627	11600.54
454.984	11600.04
455.342	11298.6
455.699	11041.79
456.056	11129.89
456.414	11452.68
456.771	11844.84
457.128	11975.19
457.485	12139.25
457.842	11979.73
458.199	12045.12
458.556	12377.24
458.913	12360.36
459.27	12570.89
459.627	12134.45
459.984	12293.58
460.341	12452.81
460.697	12047.9
461.054	11489.66
461.411	10995.57
461.767	10771.34
462.124	10846.88
462.481	11120.25
462.837	11433.68
463.194	12041.08
463.55	11960.79
463.907	12502.16
464.263	12955.07
464.619	13438.26
464.976	13846.57
465.332	13767.27
465.688	13095.18
466.044	12187.17
466.4	11823.86
466.756	11632.43
467.112	11693.9
467.468	11694.16
467.824	11435.45
468.18	11189.02
468.536	11143.85
468.892	10918.06
469.248	10656.04
469.604	10673.86
469.959	10546.77
470.315	10561.55
470.671	10631.85
471.026	10791.43
471.382	11003.95
471.737	11218.96
472.093	11440.77
472.448	11946.14
472.804	12205.08
473.159	12394.62
473.514	12366.91
473.87	12636.81
474.225	13269.3
474.58	13873.08
474.935	13772.52
475.29	13342.76
475.645	13209.6
476	13099.44
476.355	12970.64
476.71	12891.01
477.065	13593.31
477.42	14068.55
477.775	13970.09
478.13	13774.52
478.485	13887.58
478.839	14213.43
479.194	14920.58
479.549	15383.58
479.903	15328.39
480.258	14960.17
480.612	15373.38
480.967	16085.23
481.321	16010.82
481.675	15434.78
482.03	14772.88
482.384	14677.94
482.738	14822.96
483.093	15119.21
483.447	15674.52
483.801	16499.62
484.155	17077.52
484.509	21948.49
484.863	47412
485.217	58572.68
485.571	56647.82
485.925	35094.03
486.279	25703.94
486.632	21777.35
486.986	18590.09
487.34	16259.03
487.694	15305.26
488.047	15071.93
488.401	15052.52
488.754	14579.97
489.108	14339.5
489.461	14086.04
489.815	13745.25
490.168	14087.04
490.522	14104.53
490.875	13995.58
491.228	13786.78
491.581	13944.59
491.935	13829.31
492.288	13708.71
492.641	13929.84
492.994	13834.81
493.347	14150
493.7	14132.26
494.053	14007.58
494.406	13469.33
494.759	13046.98
495.111	13810.05
495.464	15009.21
495.817	15573.18
496.169	14670.22
496.522	13527.19
496.875	12596.81
497.227	12360.36
497.58	12351.79
497.932	12676.81
498.285	12753.02
498.637	13328.22
498.989	13737.99
499.342	13584.55
499.694	13033.17
500.046	12677.07
500.398	13395.4
500.751	13660.66
501.103	13710.46
501.455	13642.13
501.807	13660.41
502.159	13718.47
502.511	13658.65
502.862	13637.13
503.214	13196.3
503.566	12747.74
503.918	12439.21
504.27	12552.26
504.621	12490.33
504.973	12433.92
505.324	12519.28
505.676	12966.12
506.027	12967.12
506.379	12132.69
506.73	11833.47
507.082	12050.17
507.433	12512.99
507.784	12652.66
508.136	12446.76
508.487	12072.63
508.838	11945.89
509.189	11976.7
509.54	12279.46
509.891	12114.27
510.242	12033
510.593	11930.23
510.944	11862.27
511.295	11444.57
511.646	11241.28
511.996	11404.54
512.347	11665.82
512.698	11630.91
513.049	11469.4
513.399	11372.87
513.75	11416.45
514.1	11088.77
514.451	10790.42
514.801	10673.86
515.152	11056.02
515.502	11314.31
515.852	11629.39
516.202	11583.84
516.553	11370.84
516.903	10998.87
517.253	10741.57
517.603	10653.75
517.953	10790.67
518.303	11327.75
518.653	11562.32
519.003	11387.82
519.353	10674.37
519.703	10154.35
520.052	10097.87
520.402	10191.91
520.752	10522.05
521.102	10303.49
521.451	10134.93
521.801	10226.39
522.15	10402.74
522.5	10568.43
522.849	10591.1
523.199	10890.36
523.548	11012.33
523.897	10874.85
524.246	10515.17
524.596	10215.15
524.945	10320.84
525.294	10344.32
525.643	10442.27
525.992	10459.35
526.341	10632.36
526.69	10543.46
527.039	10286.38
527.388	10099.15
527.737	10779.48
528.086	11640.27
528.434	12097.87
528.783	11598.01
529.132	11101.72
529.48	10779.99
529.829	10718.41
530.177	10498.86
530.526	10365.49
530.874	10612.5
531.223	10606.38
531.571	10506.51
531.919	10529.19
532.268	11252.7
532.616	12049.92
532.964	12463.13
533.312	12484.79
533.66	12324.32
534.008	12344.74
534.356	12419.56
534.704	12224.24
535.052	11885.52
535.4	11422.28
535.748	10878.41
536.095	10217.96
536.443	10336.41
536.791	10671.57
537.139	11251.68
537.486	11809.71
537.834	11851.66
538.181	11968.12
538.529	11911.79
538.876	11980.99
539.223	11548.91
539.571	11148.42
539.918	11161.62
540.265	11591.18
540.613	11886.02
540.96	11742.46
541.307	11631.67
541.654	11610.41
542.001	11534.73
542.348	11472.94
542.695	11504.09
543.042	11903.71
543.388	12100.14
543.735	12204.57
544.082	12273.41
544.429	12097.36
544.775	11714.64
545.122	10958.22
545.469	10532.5
545.815	10620.14
546.162	10758.36
546.508	11311.53
546.854	12076.42
547.201	12982.95
547.547	13096.43
547.893	12637.07
548.24	11360.96
548.586	10436.66
548.932	10124.97
549.278	10073.85
549.624	10261.62
549.97	10034.21
550.316	9501.01
550.662	9401.1
551.008	10287.66
551.353	11497.51
551.699	12146.31
552.045	11547.89
552.391	10889.59
552.736	10765.23
553.082	10746.66
553.427	10403.5
553.773	9731.87
554.118	9591.09
554.464	10113.47
554.809	10950.34
555.154	11306.71
555.5	11261.07
555.845	10441.5
556.19	9857.4
556.535	9429.87
556.88	9724.95
557.225	9756.47
557.57	9389.28
557.915	8962.78
558.26	8744.46
558.605	8705.2
558.95	9039.59
559.295	9994.06
559.639	10789.91
559.984	11631.67
560.329	11721.72
560.673	11700.73
561.018	10990.99
561.362	10429.52
561.707	9950.82
562.051	10124.97
562.395	10253.45
562.74	10768.54
563.084	10925.18
563.428	11537.77
563.772	11426.84
564.117	11471.68
564.461	11455.72
564.805	11147.66
565.149	11428.11
565.493	11316.34
565.836	11749.03
566.18	12011.55
566.524	13733.24
566.868	14548.56
567.212	15071.68
567.555	15386.56
567.899	16903.14
568.242	18292.5
568.586	20858.97
568.929	23616.44
569.273	26472.72
569.616	26662.49
569.96	27432.8
570.303	29208.68
570.646	29933.41
570.989	31805.6
571.333	31322.67
571.676	28855.41
572.019	24651.18
572.362	27302.88
572.705	31648.96
573.048	35204.17
573.391	37623.31
573.733	38750.23
574.076	39584.19
574.419	37411.98
574.762	33705.79
575.104	29414.97
575.447	29803.05
575.789	33718.62
576.132	38103.28
576.474	38846.37
576.817	45471.81
577.159	51623.51
577.501	51346.33
577.844	44320.31
578.186	35054.77
578.528	32212.58
578.87	31914.48
579.212	34076.09
579.554	36473.67
579.896	36122.68
580.238	40367.73
580.58	53427.82
580.922	60103.85
581.264	62234.94
581.606	54066.1
581.947	47233.26
582.289	38158
582.631	30787.97
582.972	27208.33
583.314	27771.77
