Data from FLMS007011_11-28-42-704.txt Node
Date: Thu Apr 21 11:28:42 MDT 2016
User: lab_user
Spectrometer: FLMS00701
Autoset integration time: false
Trigger mode: 0
Integration Time (sec): 5.000000E-3
Scans to average: 10
Electric dark correction enabled: true
Nonlinearity correction enabled: true
Boxcar width: 0
XAxis mode: Wavelengths
Stop averaging: false
Number of Pixels in Spectrum: 2048
>>>>>Begin Spectral Data<<<<<
178.41	19.95
178.791	19.95
179.172	19.95
179.553	-35.77
179.934	-61.21
180.316	-77.23
180.697	-60.35
181.078	-34.62
181.459	-64.36
181.84	-37.2
182.221	-33.48
182.602	-37.77
182.983	6.24
183.364	35.08
183.744	53.07
184.125	76.48
184.506	104.72
184.887	106.15
185.268	130.39
185.648	175.15
186.029	184.27
186.41	219.3
186.791	218.45
187.171	315.78
187.552	440.81
187.932	497.01
188.313	488.49
188.694	530.47
189.074	568.17
189.455	538.98
189.835	583.76
190.216	619.45
190.596	660.5
190.977	633.04
191.357	690.5
191.737	697.85
192.118	709.17
192.498	768.54
192.878	758.36
193.258	773.62
193.639	801.03
194.019	806.68
194.399	847.06
194.779	847.62
195.159	855.53
195.54	896.73
195.92	894.19
196.3	921.55
196.68	920.98
197.06	962.14
197.44	933.67
197.82	980.18
198.2	978.49
198.58	977.64
198.959	1004.13
199.339	1047.77
199.719	1071.7
200.099	1073.1
200.479	1104.34
200.858	1132.74
201.238	1147.92
201.618	1159.17
201.998	1181.37
202.377	1202.16
202.757	1253.55
203.136	1270.67
203.516	1318.36
203.896	1317.52
204.275	1352.57
204.655	1398.82
205.034	1410.02
205.414	1419.26
205.793	1482.54
206.172	1519.19
206.552	1507.44
206.931	1559.45
207.31	1590.48
207.69	1591.87
208.069	1722.53
208.448	1742.33
208.827	1809.79
209.207	1805.33
209.586	1879.13
209.965	1910.02
210.344	1957.86
210.723	2020.12
211.102	2070.95
211.481	2102.04
211.86	2153.64
212.239	2245.11
212.618	2299.39
212.997	2356.11
213.376	2430.48
213.755	2485.73
214.134	2523.55
214.513	2569.08
214.891	2644.9
215.27	2715.97
215.649	2821.62
216.028	2912.03
216.406	2985.05
216.785	3085.41
217.164	3144.86
217.542	3249.39
217.921	3352.16
218.3	3382.47
218.678	3518.87
219.057	3693.94
219.435	3721.13
219.814	3877.6
220.192	3974.15
220.57	4042.71
220.949	4223.44
221.327	4343.09
221.705	4458.25
222.084	4600.45
222.462	4799.88
222.84	4892.19
223.218	5045.73
223.597	5224.67
223.975	5439.52
224.353	5652.53
224.731	5817.82
225.109	6078.18
225.487	6187.21
225.865	6381.67
226.243	6612.63
226.621	6761.05
226.999	7019.47
227.377	7231.46
227.755	7446.68
228.133	7687.8
228.511	7875.58
228.889	8164.83
229.266	8340.68
229.644	8598.27
230.022	8904.07
230.4	9045.34
230.777	9314.82
231.155	9524.71
231.533	9813.69
231.91	10133.74
232.288	10421.95
232.665	10571.57
233.043	10827.38
233.42	11118.81
233.798	11302.48
234.175	11670.72
234.553	11931.07
234.93	12160.27
235.307	12447.1
235.685	12669.85
236.062	12930.53
236.439	13133.41
236.816	13465.4
237.194	13778.86
237.571	13950.92
237.948	14160.82
238.325	14525.45
238.702	14596.76
239.079	14972.95
239.456	15164.82
239.833	15496.74
240.21	15770.44
240.587	15872.7
240.964	16153.01
241.341	16481.13
241.718	16783.7
242.095	16839.38
242.472	17088.49
242.849	17371.54
243.225	17662.05
243.602	17848.22
243.979	17982.73
244.356	18173.94
244.732	18567.49
245.109	18811.22
245.486	18928.24
245.862	19255.77
246.239	19527.52
246.615	19603.07
246.992	19906.18
247.368	20033.09
247.745	20235.22
248.121	20667.62
248.497	20717.26
248.874	21062.48
249.25	21224.37
249.626	21475.88
250.003	21688.55
250.379	22061.01
250.755	22149.14
251.131	22482.25
251.507	22456.97
251.884	22890.65
252.26	22880.34
252.636	23237.89
253.012	23353.72
253.388	23694.8
253.764	23849.38
254.14	23875.39
254.516	24130.33
254.892	24359.51
255.268	24478.27
255.643	24542.56
256.019	24665
256.395	24840.94
256.771	25165.34
257.147	25278.47
257.522	25382.52
257.898	25525.35
258.274	25481.91
258.649	25666.47
259.025	25917.06
259.4	25952.65
259.776	25960.99
260.151	26125.45
260.527	26259.72
260.902	26419.28
261.278	26493.66
261.653	26520.67
262.028	26593.09
262.404	26830.26
262.779	26803.5
263.154	27045.61
263.53	27335.38
263.905	27067.46
264.28	27170.84
264.655	27301.25
265.03	27043.4
265.405	27370.99
265.781	27359.94
266.156	27438.04
266.531	27405.62
266.906	27492.08
267.281	27628.39
267.655	27408.32
268.03	27454.5
268.405	27535.79
268.78	27561.83
269.155	27753.91
269.53	27635.27
269.904	27701.35
270.279	27717.81
270.654	27768.65
271.029	27594.01
271.403	27739.18
271.778	27549.06
272.152	27624.71
272.527	27720.26
272.901	27961.74
273.276	27967.39
273.65	27934.72
274.025	27960.76
274.399	27837.93
274.774	28052.64
275.148	28115.3
275.522	28049.7
275.897	28083.6
276.271	27922.44
276.645	28229.06
277.019	28258.54
277.393	28346.02
277.768	28183.35
278.142	28069.11
278.516	28173.53
278.89	28268.37
279.264	28112.59
279.638	28341.1
280.012	28403.28
280.386	28127.33
280.76	28241.83
281.133	28284.83
281.507	28261
281.881	28475.77
282.255	28307.44
282.629	28095.39
283.002	28066.65
283.376	28330.29
283.75	28177.7
284.123	28220.46
284.497	28048.22
284.87	28198.83
285.244	28214.56
285.618	28156.08
285.991	27953.14
286.364	27976.97
286.738	27951.18
287.111	28166.4
287.485	27913.59
287.858	27799.36
288.231	27607.02
288.605	27678.01
288.978	27864.7
289.351	27568.95
289.724	27395.55
290.097	27494.78
290.47	27488.88
290.843	27420.11
291.217	27165.93
291.59	26946.4
291.963	26979.31
292.336	26838.12
292.708	26807.18
293.081	26758.08
293.454	26900
293.827	26689.09
294.2	26268.55
294.573	26481.88
294.945	26255.3
295.318	26328.45
295.691	26354.47
296.064	26088.87
296.436	26050.83
296.809	26301.69
297.181	25857.17
297.554	25811.76
297.926	25922.46
298.299	25771.76
298.671	26053.04
299.044	25878.28
299.416	25825.51
299.788	25624.25
300.161	25660.09
300.533	25543.27
300.905	25852.01
301.278	25779.37
301.65	25811.52
302.022	25518.23
302.394	25459.09
302.766	25668.43
303.138	25576.15
303.51	25640.21
303.882	25705.74
304.254	25529.77
304.626	25747.46
304.998	25815.2
305.37	25475.78
305.742	25598.98
306.114	25621.31
306.485	25851.28
306.857	25729.79
307.229	25594.56
307.601	25563.39
307.972	25503.02
308.344	25560.45
308.716	25487.56
309.087	25568.05
309.459	25450.75
309.83	25419.58
310.202	25397.25
310.573	25548.67
310.945	25479.95
311.316	25280.92
311.687	25512.59
312.059	25238.22
312.43	25401.91
312.801	25363.62
313.172	25271.6
313.544	25145.95
313.915	25453.94
314.286	25375.65
314.657	25320.19
315.028	25139.33
315.399	25175.65
315.77	25274.3
316.141	25062.52
316.512	25314.05
316.883	25067.67
317.254	24983.75
317.625	24854.68
317.996	25062.28
318.366	24984.49
318.737	24914.06
319.108	24874.06
319.478	24819.1
319.849	24891.49
320.22	24863.02
320.59	24705.98
320.961	24612.74
321.331	24803.88
321.702	24486.61
322.072	24386.26
322.443	24319.02
322.813	24471.65
323.184	24320.5
323.554	24164.2
323.924	24269.21
324.295	24122.48
324.665	24040.28
325.035	24138.43
325.405	23834.91
325.775	23883.25
326.145	23698.72
326.515	23583.15
326.886	23365.99
327.256	23372.61
327.626	23127.96
327.995	23050.9
328.365	22950.53
328.735	22727.69
329.105	22303.31
329.475	21933.35
329.845	21407.11
330.215	21409.81
330.584	21633.54
330.954	22677.13
331.324	24037.83
331.693	25049.52
332.063	25671.87
332.432	26165.21
332.802	25617.87
333.171	24786.46
333.541	23888.15
333.91	23761.05
334.28	23307.09
334.649	23322.31
335.018	23204.52
335.388	23132.62
335.757	23074.21
336.126	22829.05
336.495	22894.82
336.865	22738
337.234	22662.65
337.603	22622.89
337.972	22508.76
338.341	22581.9
338.71	22582.88
339.079	22395.36
339.448	22613.81
339.817	22490.1
340.186	22481.51
340.554	22395.85
340.923	22341.11
341.292	22203.15
341.661	22215.67
342.029	22281.46
342.398	22187.2
342.767	22079.92
343.135	22174.18
343.504	22017.8
343.872	22282.93
344.241	22055.86
344.609	21943.17
344.978	21997.43
345.346	22148.16
345.715	21933.59
346.083	21833.42
346.451	21942.68
346.82	21829.73
347.188	21930.65
347.556	21700.82
347.924	21690.51
348.292	21545.87
348.66	21578.04
349.028	21542.93
349.396	21361.43
349.764	21460.16
350.132	21280.13
350.5	21369.04
350.868	21366.1
351.236	21399.01
351.604	21193.91
351.972	21249.67
352.34	21036.69
352.707	21206.68
353.075	21188.26
353.443	20984.6
353.81	20794.67
354.178	20876.99
354.545	20998.12
354.913	20933.25
355.28	20886.81
355.648	20798.6
356.015	20720.95
356.383	20852.66
356.75	20688.75
357.117	20613.79
357.485	20689.98
357.852	20494.09
358.219	20569.31
358.586	20564.64
358.954	20437.31
359.321	20413.47
359.688	20368.97
360.055	20392.33
360.422	20402.9
360.789	20224.16
361.156	20375.12
361.523	20115.97
361.89	20095.55
362.256	20200.31
362.623	19975.05
362.99	20037.27
363.357	19944.3
363.724	19954.63
364.09	19903.47
364.457	19826.97
364.823	20039.48
365.19	19956.11
365.557	20023.01
365.923	19864.11
366.29	19801.88
366.656	19840.01
367.022	20053.75
367.389	19841.97
367.755	19661.88
368.121	19533.68
368.488	19690.18
368.854	19555.33
369.22	19361.14
369.586	19237.31
369.952	19132.91
370.318	18953.61
370.684	19068.88
371.051	18935.38
371.416	18857.04
371.782	18810.72
372.148	18792.74
372.514	18654
372.88	18707.23
373.246	18567.49
373.612	18780.17
373.977	18810.72
374.343	18841.77
374.709	18987.85
375.074	18797.42
375.44	18675.2
375.806	18623.69
376.171	18616.29
376.537	18682.1
376.902	18618.02
377.268	18901.39
377.633	18820.83
377.998	19121.82
378.364	19309.2
378.729	19279.41
379.094	19109.02
379.459	18667.56
379.825	18654.74
380.19	18543.58
380.555	18342.64
380.92	17933.62
381.285	17984.46
381.65	18123.13
382.015	18121.64
382.38	18085.38
382.745	17792.18
383.11	17736.63
383.474	17829.95
383.839	17715.39
384.204	17852.91
384.569	17572.15
384.933	17599.57
385.298	17495.33
385.663	17570.92
386.027	17624.27
386.392	17792.92
386.756	17877.84
387.121	17914.37
387.485	18138.67
387.849	18222.78
388.214	17932.38
388.578	17746.5
388.942	17484.71
389.307	17599.08
389.671	17461.48
390.035	17472.85
390.399	17653.9
390.763	17758.6
391.127	18087.1
391.492	18477.51
391.856	18847.68
392.219	19343.17
392.583	19088.33
392.947	18291.1
393.311	17836.86
393.675	17827.23
394.039	17602.29
394.403	17579.81
394.766	17525.47
395.13	17379.2
395.494	17304.07
395.857	17421.95
396.221	17620.32
396.584	17969.4
396.948	18252.87
397.311	18805.06
397.675	19094.74
398.038	19022.82
398.401	18548.26
398.765	17990.13
399.128	17561.29
399.491	17256.86
399.854	17055.6
400.218	17075.13
400.581	16881.2
400.944	16812.16
401.307	16342.88
401.67	16538.1
402.033	16321.57
402.396	16406.31
402.759	16310.91
403.122	16421.67
403.485	16562.62
403.847	16746.08
404.21	16903.71
404.573	17056.58
404.936	17102.58
405.298	16781.72
405.661	16364.69
406.023	15978.65
406.386	15852.1
406.749	15687.51
407.111	15558.61
407.473	16010.9
407.836	16250.68
408.198	16453.88
408.561	16272
408.923	16272.25
409.285	16237.05
409.647	15995.02
410.009	15703.9
410.372	15679.81
410.734	15497.73
411.096	15607.29
411.458	15636.85
411.82	15807.67
412.182	16026.03
412.544	15962.77
412.906	16011.64
413.267	15912.41
413.629	15620.46
413.991	15480.59
414.353	15436.6
414.714	15206.62
415.076	15168.8
415.438	15270.78
415.799	15377.2
416.161	14981.42
416.522	14923.16
416.884	14793.65
417.245	14886.3
417.607	14850.94
417.968	14797.13
418.329	14958.76
418.691	15053.6
419.052	15021.74
419.413	15209.35
419.774	15328.47
420.135	15984.85
420.497	16514.32
420.858	17119.89
421.219	17006.13
421.58	16603.97
421.941	16076.63
422.302	15573.51
422.662	15468.41
423.023	15237.95
423.384	15174.53
423.745	15341.89
424.106	15287.94
424.466	15549.91
424.827	15071.02
425.187	14666.81
425.548	14316.12
425.909	14198.28
426.269	14464.09
426.63	14473.82
426.99	14875.59
427.35	14647.62
427.711	14858.41
428.071	15111.08
428.431	15663.42
428.792	16769.59
429.152	17861.3
429.512	17985.44
429.872	17743.79
430.232	17262.79
430.592	16276.21
430.952	15353.08
431.312	14686.5
431.672	14199.53
432.032	14267.94
432.392	14728.62
432.752	16042.4
433.111	16892.58
433.471	16642.1
433.831	15371.48
434.19	15228.75
434.55	15255.86
434.91	14989.63
435.269	15303.11
435.629	15381.92
435.988	15517.36
436.348	15148.65
436.707	14624.19
437.066	14661.08
437.426	14852.18
437.785	15062.06
438.144	15123.77
438.503	14806.85
438.862	14660.33
439.222	14431.16
439.581	14330.85
439.94	14628.42
440.299	15662.18
440.658	16593.82
441.017	16667.11
441.376	16329
441.734	16009.41
442.093	15758.77
442.452	16014.13
442.811	16270.51
443.169	16240.27
443.528	15691.48
443.887	15573.51
444.245	15572.77
444.604	15140.94
444.962	14995.36
445.321	14981.42
445.679	15095.16
446.038	15275.26
446.396	14919.42
446.754	14438.15
447.112	14386
447.471	14263.45
447.829	14096.87
448.187	14242.23
448.545	14277.93
448.903	14140.34
449.261	14072.89
449.619	13935.92
449.977	13703.79
450.335	13479.43
450.693	13374.93
451.051	13393.98
451.409	13404.26
451.766	13309.75
452.124	13004.38
452.482	12714.12
452.839	12527.93
453.197	12385.64
453.555	12278.79
453.912	12283.07
454.27	12661.3
454.627	13034.76
454.984	12974.24
455.342	12636.65
455.699	12381.36
456.056	12397.23
456.414	12693.25
456.771	13013.42
457.128	13253.83
457.485	13357.89
457.842	13190.62
458.199	13211.19
458.556	13483.69
458.913	13442.6
459.27	13727.82
459.627	13295.96
459.984	13375.43
460.341	13446.61
460.697	13190.62
461.054	12499.98
461.411	11954.56
461.767	11614.55
462.124	11620.87
462.481	11975.78
462.837	12213.49
463.194	12898.88
463.55	12641.93
463.907	13298.97
464.263	13700.04
464.619	14258.96
464.976	14680.77
465.332	14770.72
465.688	14057.39
466.044	13046.56
466.4	12602.18
466.756	12375.81
467.112	12462.71
467.468	12353.14
467.824	12295.93
468.18	11971.74
468.536	11777.94
468.892	11494.3
469.248	11326.31
469.604	11201.03
469.959	11197.23
470.315	11255.32
470.671	11279.92
471.026	11455.8
471.382	11584.43
471.737	11882.82
472.093	12191.8
472.448	12698.53
472.804	12955.65
473.159	13139.43
473.514	13126.13
473.87	13398.24
474.225	14145.58
474.58	14744.81
474.935	14682.76
475.29	14287.92
475.645	14155.08
476	14145.58
476.355	13905.67
476.71	13743.58
477.065	14584.3
477.42	15130.49
477.775	15083.71
478.13	14817.81
478.485	15028.21
478.839	15281.72
479.194	16180.28
479.549	16585.89
479.903	16539.83
480.258	16188.96
480.612	16689.64
480.967	17450.36
481.321	17447.15
481.675	16876
482.03	16197.14
482.384	16014.87
482.738	16343.13
483.093	16521.5
483.447	17178.74
483.801	18257.56
484.155	18934.15
484.509	22653.32
484.863	50835.07
485.217	63951.78
485.571	63494.63
485.925	40802.83
486.279	29391.2
486.632	24913.33
486.986	21242.3
487.34	18360.15
487.694	17358.69
488.047	17136.95
488.401	17077.11
488.754	16826.26
489.108	16204.33
489.461	16065.72
489.815	15774.16
490.168	16114.08
490.522	16191.93
490.875	16264.07
491.228	16011.89
491.581	16170.36
491.935	16135.4
492.288	15954.34
492.641	16293.81
492.994	16180.78
493.347	16589.61
493.7	16537.6
494.053	16547.26
494.406	16002.71
494.759	15342.89
495.111	16226.64
495.464	17633.9
495.817	18615.8
496.169	17719.34
496.522	16223.91
496.875	15045.14
497.227	14874.1
497.58	14761.26
497.932	15206.12
498.285	15396.83
498.637	16050.84
498.989	16644.33
499.342	16491.53
499.694	15809.66
500.046	15345.38
500.398	16165.16
500.751	16473.7
501.103	16595.55
501.455	16498.72
501.807	16504.91
502.159	16487.82
502.511	16512.83
502.862	16459.58
503.214	16040.42
503.566	15392.11
503.918	14984.65
504.27	15117.3
504.621	15114.32
504.973	14774.46
505.324	14969.22
505.676	15568.29
506.027	15614.5
506.379	14539.16
506.73	14013.41
507.082	14370.03
507.433	14723.13
507.784	15101.63
508.136	14559.36
508.487	14369.53
508.838	13957.17
509.189	14009.91
509.54	14373.52
509.891	14029.16
510.242	14041.65
510.593	13941.17
510.944	13687.52
511.295	13281.67
511.646	12919.98
511.996	13008.39
512.347	13299.22
512.698	13348.61
513.049	13080.95
513.399	12909.93
513.75	13050.33
514.1	12658.03
514.451	12092.9
514.801	12040.41
515.152	12355.4
515.502	12668.09
515.852	12910.69
516.202	12931.54
516.553	12737.76
516.903	12259.88
517.253	11962.9
517.603	11869.94
517.953	11989.41
518.303	12539.51
518.653	12733.99
519.003	12533.21
519.353	11707.9
519.703	11213.97
520.052	10973.04
520.402	11242.64
520.752	11473.03
521.102	11210.42
521.451	10949.41
521.801	11076.41
522.15	11284.99
522.5	11441.36
522.849	11462.14
523.199	11706.89
523.548	11861.85
523.897	11705.62
524.246	11341.78
524.596	11055.85
524.945	11076.16
525.294	11124.65
525.643	11219.81
525.992	11249.99
526.341	11360.79
526.69	11239.85
527.039	11042.13
527.388	10735.29
527.737	11403.36
528.086	12278.53
528.434	12784.28
528.783	12315.34
529.132	11863.12
529.48	11493.03
529.829	11345.58
530.177	11103.83
530.526	11021.05
530.874	11214.73
531.223	11215.75
531.571	11139.12
531.919	11234.52
532.268	11864.38
532.616	12758.13
532.964	13211.69
533.312	13200.65
533.66	13079.95
534.008	13073.92
534.356	13115.09
534.704	13014.67
535.052	12669.35
535.4	12158
535.748	11587.47
536.095	10947.88
536.443	10902.13
536.791	11278.65
537.139	11850.73
537.486	12294.67
537.834	12680.17
538.181	12763.41
538.529	12682.18
538.876	12758.38
539.223	12269.96
539.571	11860.34
539.918	11857.3
540.265	12249.04
540.613	12686.71
540.96	12486.89
541.307	12378.33
541.654	12291.14
542.001	12464.48
542.348	12292.4
542.695	12232.4
543.042	12704.82
543.388	12905.41
543.735	13001.87
544.082	13107.31
544.429	13119.6
544.775	12579.27
545.122	11887.12
545.469	11426.67
545.815	11395
546.162	11575.82
546.508	12084.32
546.854	12915.96
547.201	14061.39
547.547	14341.33
547.893	13804.63
548.24	12579.53
548.586	11401.84
548.932	11135.82
549.278	10915.35
549.624	11138.36
549.97	10937.72
550.316	10507.1
550.662	10290.3
551.008	11073.11
551.353	12631.87
551.699	13341.59
552.045	12820.72
552.391	12096.94
552.736	11885.1
553.082	11890.4
553.427	11585.19
553.773	10877.22
554.118	10619.71
554.464	11218.54
554.809	12089.37
555.154	12707.33
555.5	12703.06
555.845	11785.02
556.19	11263.69
556.535	10647.98
556.88	10896.54
557.225	10975.83
557.57	10674.46
557.915	10162.87
558.26	9881.04
558.605	9930.95
558.95	10194.29
559.295	11320.99
559.639	12262.4
559.984	13341.84
560.329	13493.96
560.673	13563.59
561.018	12766.93
561.362	12184.73
561.707	11564.43
562.051	11785.78
562.395	11933.1
562.74	12524.4
563.084	12869.73
563.428	13428.57
563.772	13460.64
564.117	13403.51
564.461	13613.42
564.805	13224.23
565.149	13539.55
565.493	13500.73
565.836	13964.17
566.18	14259.96
566.524	16273.98
566.868	17413.8
567.212	18082.66
567.555	18493.05
567.899	20275.06
568.242	21913.71
568.586	24805.85
568.929	28409.42
569.273	32008.67
569.616	32476.32
569.96	33383.28
570.303	35669.35
570.646	36654.97
570.989	38867.27
571.333	38556.32
571.676	35930.75
572.019	30597.31
572.362	33376.86
572.705	38655.67
573.048	43265.09
573.391	46085.45
573.733	47687.93
574.076	48843.57
574.419	46932.32
574.762	42214.61
575.104	37155.52
575.447	36844.63
575.789	41270.78
576.132	47019.64
576.474	47692.3
576.817	55518.33
577.159	62211.89
577.501	62557.75
577.844	55808.84
578.186	44484.2
578.528	40135.9
578.87	39787.2
579.212	41886.9
579.554	45306.74
579.896	44475.66
580.238	48695.93
580.58	63510.91
580.922	68753.5
581.264	68753.5
581.606	65694.72
581.947	58456.55
582.289	47880.04
582.631	38936.17
582.972	33661.72
