Data from FLMS007011_11-27-32-149.txt Node
Date: Thu Apr 21 11:27:32 MDT 2016
User: lab_user
Spectrometer: FLMS00701
Autoset integration time: false
Trigger mode: 0
Integration Time (sec): 5.000000E-3
Scans to average: 10
Electric dark correction enabled: true
Nonlinearity correction enabled: true
Boxcar width: 0
XAxis mode: Wavelengths
Stop averaging: false
Number of Pixels in Spectrum: 2048
>>>>>Begin Spectral Data<<<<<
178.41	36.19
178.791	36.19
179.172	36.19
179.553	-39.52
179.934	-52.95
180.316	-61.82
180.697	-70.11
181.078	-44.38
181.459	-58.96
181.84	-63.82
182.221	-31.8
182.602	-14.37
182.983	10.2
183.364	13.63
183.744	35.34
184.125	45.33
184.506	116.1
184.887	108.11
185.268	139.77
185.648	157.73
186.029	174.55
186.41	189.93
186.791	221.84
187.171	287.31
187.552	443.62
187.932	470.02
188.313	491.58
188.694	491.87
189.074	525.62
189.455	578.63
189.835	591.66
190.216	607.52
190.596	638.11
190.977	648.3
191.357	679.15
191.737	709.13
192.118	706.02
192.498	703.48
192.878	774.16
193.258	801.85
193.639	745.33
194.019	782.35
194.399	807.5
194.779	828.11
195.159	835.73
195.54	859.17
195.92	885.69
196.3	889.92
196.68	900.64
197.06	928.56
197.44	940.97
197.82	953.09
198.2	977.61
198.58	985.22
198.959	1011.42
199.339	1037.33
199.719	1035.35
200.099	1113.59
200.479	1112.18
200.858	1154.92
201.238	1130.18
201.618	1168.13
201.998	1181.9
202.377	1176.56
202.757	1209.43
203.136	1268.67
203.516	1275.41
203.896	1326.47
204.275	1339.09
204.655	1404.67
205.034	1406.63
205.414	1408.03
205.793	1455.35
206.172	1523.91
206.552	1526.71
206.931	1566.69
207.31	1610.84
207.69	1647.99
208.069	1705.48
208.448	1713.57
208.827	1766.84
209.207	1830.65
209.586	1876.31
209.965	1936.97
210.344	1913.33
210.723	1985.91
211.102	2082.02
211.481	2129.76
211.86	2161.65
212.239	2237.32
212.618	2312.09
212.997	2319.84
213.376	2424.1
213.755	2431.83
214.134	2534.84
214.513	2625.85
214.891	2690.6
215.27	2759.98
215.649	2848.26
216.028	2947.97
216.406	3014.1
216.785	3081.82
217.164	3191.36
217.542	3292.83
217.921	3401.27
218.3	3473.03
218.678	3597.3
219.057	3729.8
219.435	3767.31
219.814	3903.34
220.192	4045.39
220.57	4140.94
220.949	4313.36
221.327	4430.73
221.705	4563.81
222.084	4679.49
222.462	4880.63
222.84	5042.76
223.218	5186.42
223.597	5354.94
223.975	5555.11
224.353	5771.05
224.731	5897.14
225.109	6171.05
225.487	6409.09
225.865	6542.53
226.243	6671.57
226.621	6953.59
226.999	7213.89
227.377	7401.18
227.755	7611.89
228.133	7908.59
228.511	8131.84
228.889	8368.12
229.266	8572.9
229.644	8933.18
230.022	9152.97
230.4	9328.42
230.777	9508.25
231.155	9820.83
231.533	10094.35
231.91	10367.08
232.288	10684.61
232.665	10889.4
233.043	11227.13
233.42	11499.59
233.798	11749.85
234.175	12069.91
234.553	12196.06
234.93	12514.56
235.307	12772.43
235.685	13092.47
236.062	13284.65
236.439	13463.12
236.816	13943.39
237.194	14148.8
237.571	14446.35
237.948	14653.82
238.325	15016.98
238.702	15074.48
239.079	15442.79
239.456	15689.22
239.833	15924.78
240.21	16223.39
240.587	16437.26
240.964	16717.58
241.341	16892.3
241.718	17252.14
242.095	17402.4
242.472	17691.66
242.849	17925.94
243.225	18273.07
243.602	18353.96
243.979	18680.84
244.356	18868.59
244.732	19089.04
245.109	19491.56
245.486	19680.56
245.862	19878.35
246.239	20192.91
246.615	20405.82
246.992	20460.15
247.368	20666.85
247.745	20949.44
248.121	21328.74
248.497	21349.12
248.874	21809.08
249.25	22024.4
249.626	22229.64
250.003	22408.83
250.379	22754.9
250.755	22912.71
251.131	23222.41
251.507	23250.14
251.884	23651.83
252.26	23693.3
252.636	24024.31
253.012	24184.53
253.388	24497.38
253.764	24675.03
254.14	24726.32
254.516	25026.67
254.892	25153.29
255.268	25337.58
255.643	25373.9
256.019	25556.98
256.395	25640.18
256.771	25883.65
257.147	26112.66
257.522	26113.88
257.898	26326.71
258.274	26463.44
258.649	26582.02
259.025	26741.85
259.4	26850.86
259.776	27102.06
260.151	27116.3
260.527	27088.06
260.902	27392.09
261.278	27477.56
261.653	27556.15
262.028	27449.8
262.404	27768.13
262.779	27799.82
263.154	27956.06
263.53	28192.91
263.905	27986.04
264.28	28044.51
264.655	28102
265.03	28121.66
265.405	28439.37
265.781	28265.89
266.156	28457.31
266.531	28696.19
266.906	28568.88
267.281	28836.3
267.655	28506.71
268.03	28396.61
268.405	28493.19
268.78	28577.49
269.155	28760.1
269.53	28626.39
269.904	28790.82
270.279	28776.32
270.654	28718.81
271.029	28675.3
271.403	28813.19
271.778	28732.57
272.152	28658.59
272.527	28735.27
272.901	28994.85
273.276	29095.64
273.65	29041.31
274.025	29037.38
274.399	28934.87
274.774	29018.2
275.148	29186.36
275.522	29109.41
275.897	29149.97
276.271	29088.02
276.645	29438.88
277.019	29338.55
277.393	29496.17
277.768	29342.49
278.142	29238.24
278.516	29325.28
278.89	29393.14
279.264	29281.02
279.638	29350.85
280.012	29322.82
280.386	29157.1
280.76	29308.8
281.133	29231.11
281.507	29281.51
281.881	29441.09
282.255	29410.11
282.629	29178.74
283.002	29178.74
283.376	29252
283.75	29168.9
284.123	29242.17
284.497	29163.99
284.87	29229.88
285.244	29243.89
285.618	29163.99
285.991	28993.37
286.364	29053.35
286.738	29020.66
287.111	29189.06
287.485	29065.65
287.858	28861.12
288.231	28745.6
288.605	28825.73
288.978	28899.22
289.351	28537.92
289.724	28513.59
290.097	28463.95
290.47	28371.06
290.843	28370.57
291.217	28291.2
291.59	27854.85
291.963	27997.09
292.336	27832
292.708	27802.53
293.081	27639.42
293.454	27960
293.827	27480.26
294.2	27370.72
294.573	27310.55
294.945	27099.85
295.318	27309.81
295.691	27361.39
296.064	27105.25
296.436	26862.4
296.809	27124.16
297.181	26885.24
297.554	26703.05
297.926	26765.17
298.299	26756.58
298.671	27054.17
299.044	26808.88
299.416	26726.13
299.788	26714.84
300.161	26434.23
300.533	26464.91
300.905	26841.04
301.278	26762.72
301.65	26738.9
302.022	26692.99
302.394	26509.84
302.766	26503.95
303.138	26414.83
303.51	26580.05
303.882	26513.52
304.254	26448.96
304.626	26646.83
304.998	26722.45
305.37	26263.86
305.742	26560.17
306.114	26484.8
306.485	26565.32
306.857	26666.47
307.229	26361.56
307.601	26465.16
307.972	26458.29
308.344	26354.69
308.716	26336.52
309.087	26420.97
309.459	26437.17
309.83	26502.97
310.202	26392.25
310.573	26435.7
310.945	26418.76
311.316	26232.2
311.687	26479.89
312.059	26203.72
312.43	26205.69
312.801	26252.08
313.172	26076.57
313.544	26074.36
313.915	26296.02
314.286	26198.57
314.657	26195.13
315.028	26101.61
315.399	26122.96
315.77	26064.55
316.141	25989.44
316.512	26083.69
316.883	25845.12
317.254	26019.87
317.625	25743.01
317.996	25892.24
318.366	25889.54
318.737	25787.19
319.108	25769.28
319.478	25709.14
319.849	25639.44
320.22	25646.81
320.59	25685.09
320.961	25593.8
321.331	25744.98
321.702	25246.54
322.072	25291.2
322.443	25314.76
322.813	25336.6
323.184	25156.48
323.554	25103.97
323.924	24994.52
324.295	24962.87
324.665	24803.12
325.035	24710.86
325.405	24563.63
325.775	24601.42
326.145	24455.67
326.515	24406.35
326.886	24272.62
327.256	24156.07
327.626	23872.42
327.995	23774.03
328.365	23652.57
328.735	23428.04
329.105	23121.3
329.475	22650.1
329.845	22152.55
330.215	22340.59
330.584	22685.2
330.954	23607.42
331.324	24836.74
331.693	25857.14
332.063	26309.52
332.432	26812.07
332.802	26240.3
333.171	25631.59
333.541	24627.19
333.91	24529.77
334.28	24154.35
334.649	24023.08
335.018	23818.19
335.388	23924.93
335.757	23778.93
336.126	23547.79
336.495	23643.49
336.865	23452.34
337.234	23339.21
337.603	23315.9
337.972	23314.92
338.341	23351.73
338.71	23314.43
339.079	23293.08
339.448	23276.88
339.817	23196.4
340.186	23152.96
340.554	22988.79
340.923	23168.17
341.292	22883.26
341.661	22924
342.029	23011.85
342.398	22951.97
342.767	22745.33
343.135	22914.18
343.504	22740.18
343.872	22896.76
344.241	22739.44
344.609	22717.11
344.978	22694.04
345.346	22784.6
345.715	22636.11
346.083	22488.6
346.451	22567.88
346.82	22510.69
347.188	22387.72
347.556	22342.55
347.924	22379.37
348.292	22224.73
348.66	22214.66
349.028	22169.25
349.396	22185.94
349.764	22187.17
350.132	22019
350.5	22093.88
350.868	22062.95
351.236	22015.32
351.604	21821.11
351.972	21985.12
352.34	21579.24
352.707	21878.32
353.075	21711.36
353.443	21603.31
353.81	21509.5
354.178	21528.9
354.545	21576.54
354.913	21500.9
355.28	21423.79
355.648	21431.89
356.015	21380.07
356.383	21448.1
356.75	21309.82
357.117	21228.03
357.485	21202.48
357.852	21116.01
358.219	21279.61
358.586	21188.97
358.954	21046.73
359.321	21036.66
359.688	21018.97
360.055	20944.28
360.422	20938.14
360.789	20823.88
361.156	20858.28
361.523	20729.77
361.89	20687.01
362.256	20747.21
362.623	20548.14
362.99	20529.95
363.357	20523.81
363.724	20559.45
364.09	20488.91
364.457	20513.24
364.823	20532.41
365.19	20489.64
365.557	20514.47
365.923	20431.14
366.29	20406.8
366.656	20441.46
367.022	20497.75
367.389	20358.37
367.755	20211.1
368.121	20221.18
368.488	20065.77
368.854	20067.98
369.22	19962.23
369.586	19698.52
369.952	19652.51
370.318	19531.68
370.684	19477.29
371.051	19492.55
371.416	19430.53
371.782	19352.99
372.148	19360.13
372.514	19130.66
372.88	19073.28
373.246	19126.23
373.612	19311.38
373.977	19256.48
374.343	19424.13
374.709	19636.76
375.074	19296.12
375.44	19236.05
375.806	19159.23
376.171	19181.88
376.537	19280.12
376.902	19231.37
377.268	19372.43
377.633	19419.2
377.998	19542.75
378.364	19871.22
378.729	19685.97
379.094	19668.01
379.459	19201.09
379.825	19139.03
380.19	19059.49
380.555	18804.29
380.92	18459.74
381.285	18349.77
381.65	18684.53
382.015	18604.19
382.38	18566.23
382.745	18338.42
383.11	18142.83
383.474	18356.67
383.839	18267.4
384.204	18239.78
384.569	18118.16
384.933	18014.54
385.298	17959.5
385.663	18003.68
386.027	18019.96
386.392	18096.95
386.756	18231.39
387.121	18394.4
387.485	18456.04
387.849	18796.41
388.214	18353.71
388.578	18116.19
388.942	17938.03
389.307	17980.73
389.671	17931.37
390.035	17960
390.399	18016.76
390.763	18234.35
391.127	18460.97
391.492	18937.32
391.856	19353.97
392.219	19705.16
392.583	19506.82
392.947	18788.77
393.311	18389.22
393.675	18231.88
394.039	18072.52
394.403	18011.08
394.766	17793.38
395.13	17756.1
395.494	17770.42
395.857	17850.41
396.221	18048.59
396.584	18317.71
396.948	18654.71
397.311	19211.18
397.675	19568.84
398.038	19522.57
398.401	18883.62
398.765	18403.03
399.128	17938.03
399.491	17719.07
399.854	17531.37
400.218	17461.21
400.581	17273.64
400.944	17183.16
401.307	16677.48
401.67	16853.21
402.033	16683.91
402.396	16618.55
402.759	16743.82
403.122	16833.66
403.485	16925.46
403.847	17047.16
404.21	17299.35
404.573	17531.86
404.936	17528.16
405.298	17177.23
405.661	16751.74
406.023	16359.7
406.386	16151
406.749	15953.32
407.111	15985.82
407.473	16351.28
407.836	16713.37
408.198	16758.18
408.561	16686.39
408.923	16583.88
409.285	16577.94
409.647	16288.33
410.009	16028.48
410.372	16035.93
410.734	15847.36
411.096	15876.4
411.458	15946.12
411.82	16183.23
412.182	16268.75
412.544	16309.89
412.906	16304.69
413.267	16268.5
413.629	16042.13
413.991	15796.97
414.353	15768.67
414.714	15531.99
415.076	15574.73
415.438	15615.46
415.799	15593.36
416.161	15396.06
416.522	15242.9
416.884	15253.84
417.245	15258.07
417.607	15119.52
417.968	15123
418.329	15259.81
418.691	15273.49
419.052	15328.94
419.413	15533.98
419.774	15648.25
420.135	16324.02
420.497	16859.64
420.858	17312.94
421.219	17355.2
421.58	16923.73
421.941	16454.6
422.302	15918.09
422.662	15767.18
423.023	15553.11
423.384	15501.93
423.745	15622.17
424.106	15658.93
424.466	15793
424.827	15463.41
425.187	14998.07
425.548	14687.97
425.909	14531.41
426.269	14784.9
426.63	14793.37
426.99	15155.09
427.35	15011.51
427.711	15065.52
428.071	15401.53
428.431	15845.62
428.792	17108.24
429.152	18215.36
429.512	18265.18
429.872	18052.04
430.232	17622.76
430.592	16614.59
430.952	15752.54
431.312	14985.37
431.672	14463.56
432.032	14511.45
432.392	14927.11
432.752	16415.95
433.111	17236.81
433.471	16931.89
433.831	15606.02
434.19	15518.58
434.55	15548.14
434.91	15147.13
435.269	15472.86
435.629	15635.08
435.988	15853.56
436.348	15489.75
436.707	14968.94
437.066	14800.59
437.426	15176.99
437.785	15283.68
438.144	15388.11
438.503	15106.83
438.862	14885.53
439.222	14681.99
439.581	14485.76
439.94	14943.55
440.299	15893.52
440.658	16784.91
441.017	16908.39
441.376	16661.63
441.734	16236.03
442.093	16065.69
442.452	16310.14
442.811	16537.08
443.169	16464.75
443.528	16033.94
443.887	15860.51
444.245	15798.21
444.604	15539.7
444.962	15286.67
445.321	15290.4
445.679	15450.24
446.038	15546.16
446.396	15267.02
446.754	14744.29
447.112	14703.67
447.471	14507.71
447.829	14268.67
448.187	14367.26
448.545	14470.05
448.903	14366.76
449.261	14397.95
449.619	14154.05
449.977	14033.63
450.335	13772.83
450.693	13674.23
451.051	13697.01
451.409	13571.33
451.766	13597.12
452.124	13192.35
452.482	12878.25
452.839	12644.17
453.197	12511.28
453.555	12419.12
453.912	12442.79
454.27	12805.62
454.627	13234.24
454.984	13184.82
455.342	12825.98
455.699	12579.5
456.056	12602.65
456.414	12889.3
456.771	13355.1
457.128	13427.29
457.485	13575.34
457.842	13447.08
458.199	13407.99
458.556	13761.82
458.913	13743.55
459.27	13947.39
459.627	13609.39
459.984	13532.26
460.341	13771.33
460.697	13400.72
461.054	12681.9
461.411	12116.34
461.767	11878.75
462.124	11880.27
462.481	12168.31
462.837	12535.95
463.194	13140.91
463.55	12801.09
463.907	13522.99
464.263	13890.64
464.619	14568.31
464.976	14961.47
465.332	14970.68
465.688	14273.16
466.044	13199.12
466.4	12800.84
466.756	12613.97
467.112	12700.76
467.468	12613.72
467.824	12398.46
468.18	12085.81
468.536	12067.39
468.892	11702.81
469.248	11592.5
469.604	11407.39
469.959	11344.79
470.315	11427.91
470.671	11437.03
471.026	11543.65
471.382	11820.88
471.737	12143.59
472.093	12267.16
472.448	12758.85
472.804	13095.23
473.159	13274.87
473.514	13234.74
473.87	13529
474.225	14348.79
474.58	14942.3
474.935	14889.76
475.29	14470.55
475.645	14370.25
476	14288.64
476.355	14075.61
476.71	14083.1
477.065	14809.56
477.42	15276.47
477.775	15272.49
478.13	15001.3
478.485	15241.91
478.839	15455.71
479.194	16350.54
479.549	16924.96
479.903	16897.5
480.258	16470.95
480.612	16945.5
480.967	17668.2
481.321	17857.57
481.675	17031.58
482.03	16526.43
482.384	16336.91
482.738	16470.45
483.093	16744.56
483.447	17402.65
483.801	18495.48
484.155	19125
484.509	23100.69
484.863	50887.55
485.217	64281.83
485.571	64241.14
485.925	41859.22
486.279	30102.71
486.632	25318.2
486.986	21566.72
487.34	18754.03
487.694	17744.01
488.047	17209.12
488.401	17283.03
488.754	17083.02
489.108	16650.99
489.461	16332.94
489.815	15928.51
490.168	16505.13
490.522	16449.15
490.875	16333.19
491.228	16201.82
491.581	16424.12
491.935	16359.7
492.288	16206.78
492.641	16466.24
492.994	16389.44
493.347	16825.74
493.7	16823.51
494.053	16693.82
494.406	16242.97
494.759	15639.55
495.111	16483.33
495.464	17975.3
495.817	18819.32
496.169	17937.05
496.522	16541.29
496.875	15290.9
497.227	15000.56
497.58	14991.1
497.932	15354.3
498.285	15524.79
498.637	16331.95
498.989	16812.87
499.342	16625.98
499.694	15998.97
500.046	15616.95
500.398	16266.52
500.751	16706.94
501.103	16684.9
501.455	16676.98
501.807	16758.18
502.159	16764.61
502.511	16708.42
502.862	16623.26
503.214	16301.47
503.566	15580.69
503.918	15221.26
504.27	15277.22
504.621	15323.47
504.973	15090.9
505.324	15194.9
505.676	15728.45
506.027	15754.52
506.379	14746.53
506.73	14322.09
507.082	14473.54
507.433	14946.78
507.784	15220.27
508.136	14691.71
508.487	14517.69
508.838	14130.82
509.189	14226.72
509.54	14602.97
509.891	14187.52
510.242	14304.11
510.593	14069.36
510.944	13910.14
511.295	13441.57
511.646	13095.98
511.996	13186.83
512.347	13474.89
512.698	13432.55
513.049	13332.04
513.399	13125.1
513.75	13149.19
514.1	12820.95
514.451	12317.32
514.801	12202.36
515.152	12574.21
515.502	12861.66
515.852	13129.36
516.202	13151.7
516.553	12862.17
516.903	12434.23
517.253	12088.33
517.603	11934.08
517.953	12053.51
518.303	12585.79
518.653	12983.5
519.003	12710.82
519.353	11895.68
519.703	11288
520.052	11291.81
520.402	11403.59
520.752	11608.95
521.102	11401.81
521.451	11128.68
521.801	11232.21
522.15	11393.45
522.5	11509.47
522.849	11619.07
523.199	11840.09
523.548	12044.67
523.897	11846.41
524.246	11428.42
524.596	11211.66
524.945	11205.32
525.294	11314.37
525.643	11418.79
525.992	11366.08
526.341	11460.59
526.69	11394.72
527.039	11046.68
527.388	10860.41
527.737	11618.31
528.086	12413.32
528.434	13024.44
528.783	12504.74
529.132	12008.07
529.48	11655
529.829	11493.51
530.177	11298.14
530.526	11149.24
530.874	11300.43
531.223	11388.13
531.571	11300.93
531.919	11325.78
532.268	12003.52
532.616	12875.99
532.964	13439.06
533.312	13398.21
533.66	13192.35
534.008	13299.44
534.356	13292.92
534.704	13163.99
535.052	12776.2
535.4	12231.36
535.748	11642.61
536.095	11151.78
536.443	10959.04
536.791	11441.34
537.139	11967.67
537.486	12556.85
537.834	12831.25
538.181	12844.32
538.529	12775.45
538.876	12873.72
539.223	12519.34
539.571	12023.21
539.918	12012.36
540.265	12384.6
540.613	12815.42
540.96	12637.37
541.307	12531.42
541.654	12496.93
542.001	12552.06
542.348	12523.62
542.695	12433.22
543.042	12758.35
543.388	13113.3
543.735	13206.9
544.082	13236.75
544.429	13194.1
544.775	12727.93
545.122	11985.6
545.469	11483.89
545.815	11479.08
546.162	11781.96
546.508	12202.61
546.854	13055.32
547.201	14017.13
547.547	14519.93
547.893	13932.39
548.24	12642.41
548.586	11472.49
548.932	11191.87
549.278	10960.56
549.624	11291.3
549.97	11088.32
550.316	10538.42
550.662	10475.47
551.008	11130.2
551.353	12622.03
551.699	13461.36
552.045	12909.65
552.391	12242.96
552.736	12099.94
553.082	11980.8
553.427	11748.08
553.773	11026.61
554.118	10770.38
554.464	11390.92
554.809	12302.96
555.154	12807.37
555.5	12806.37
555.845	11979.54
556.19	11399.53
556.535	10757.65
556.88	11075.12
557.225	11152.29
557.57	10837.02
557.915	10194.01
558.26	9971.6
558.605	10095.38
558.95	10357.39
559.295	11431.2
559.639	12319.34
559.984	13355.1
560.329	13611.64
560.673	13679.99
561.018	12859.9
561.362	12285.56
561.707	11644.63
562.051	11803.19
562.395	12024.48
562.74	12685.67
563.084	12918.95
563.428	13545.78
563.772	13475.39
564.117	13725.29
564.461	13804.6
564.805	13450.34
565.149	13687.49
565.493	13681.49
565.836	14110.58
566.18	14430.39
566.524	16347.31
566.868	17478.01
567.212	18354.95
567.555	18645.1
567.899	20424.99
568.242	22070.8
568.586	25052.68
568.929	28497.12
569.273	32199.57
569.616	32687.76
569.96	33765.79
570.303	35950.25
570.646	37028.85
570.989	39181.78
571.333	38976.78
571.676	36447.27
572.019	31087.35
572.362	33755.18
572.705	38906.65
573.048	43577.12
573.391	46557.17
573.733	48164.61
574.076	49330.71
574.419	47482.04
574.762	42599.24
575.104	37691.91
575.447	37126.3
575.789	41536.27
576.132	47319.84
576.474	48094.41
576.817	55782.17
577.159	62477.67
577.501	63083.21
577.844	56399.18
578.186	45097.6
578.528	40565.75
578.87	40199.43
579.212	42108.89
579.554	45490.81
579.896	44863.53
580.238	49124.99
580.58	63785.25
580.922	68724.85
581.264	68724.85
581.606	66261.94
581.947	59030.63
582.289	48695.9
582.631	39491.98
582.972	34085.28
