Data from FLMS007011_12-43-26-984.txt Node
Date: Thu Apr 21 12:43:26 MDT 2016
User: lab_user
Spectrometer: FLMS00701
Autoset integration time: false
Trigger mode: 0
Integration Time (sec): 5.000000E-3
Scans to average: 10
Electric dark correction enabled: true
Nonlinearity correction enabled: true
Boxcar width: 0
XAxis mode: Wavelengths
Stop averaging: false
Number of Pixels in Spectrum: 2048
>>>>>Begin Spectral Data<<<<<
178.41	43.89
178.791	43.89
179.172	43.89
179.553	-50.97
179.934	-69.27
180.316	-62.12
180.697	-96.44
181.078	-62.4
181.459	-55.83
181.84	-52.97
182.221	-40.96
182.602	-13.24
182.983	12.76
183.364	45.31
183.744	61.3
184.125	74.43
184.506	81.28
184.887	96.97
185.268	129.2
185.648	149.73
186.029	179.66
186.41	202.74
186.791	222.1
187.171	233.21
187.552	247.16
187.932	288.14
188.313	300.38
188.694	298.39
189.074	353.84
189.455	375.72
189.835	343.32
190.216	374.59
190.596	368.62
190.977	379.42
191.357	400.16
191.737	391.07
192.118	415.21
192.498	433.67
192.878	433.67
193.258	447.01
193.639	443.89
194.019	459.22
194.399	435.37
194.779	436.51
195.159	439.35
195.54	463.76
195.92	437.08
196.3	469.44
196.68	470
197.06	441.62
197.44	445.31
197.82	445.88
198.2	473.41
198.58	445.88
198.959	418.05
199.339	438.5
199.719	423.45
200.099	454.96
200.479	436.51
200.858	412.65
201.238	407.54
201.618	435.94
201.998	414.93
202.377	430.83
202.757	406.12
203.136	401.86
203.516	407.54
203.896	392.2
204.275	424.58
204.655	424.01
205.034	385.95
205.414	416.63
205.793	399.87
206.172	415.78
206.552	413.22
206.931	394.47
207.31	387.09
207.69	416.91
208.069	420.89
208.448	389.93
208.827	424.3
209.207	401.29
209.586	397.03
209.965	401.29
210.344	392.2
210.723	402.43
211.102	395.33
211.481	415.49
211.86	409.81
212.239	419.19
212.618	401.29
212.997	387.09
213.376	392.2
213.755	421.17
214.134	423.73
214.513	422.59
214.891	430.26
215.27	403.28
215.649	427.14
216.028	419.19
216.406	420.32
216.785	429.13
217.164	402.43
217.542	381.69
217.921	410.1
218.3	411.23
218.678	420.04
219.057	427.71
219.435	412.94
219.814	423.45
220.192	430.26
220.57	422.88
220.949	414.93
221.327	418.33
221.705	414.64
222.084	433.1
222.462	411.23
222.84	427.71
223.218	428.56
223.597	418.9
223.975	435.37
224.353	406.69
224.731	418.9
225.109	422.03
225.487	418.05
225.865	410.38
226.243	407.26
226.621	440.77
226.999	427.14
227.377	393.91
227.755	410.95
228.133	405.84
228.511	407.83
228.889	445.31
229.266	422.31
229.644	421.74
230.022	437.36
230.4	454.68
230.777	414.64
231.155	424.01
231.533	428.56
231.91	434.52
232.288	431.11
232.665	422.03
233.043	417.77
233.42	433.95
233.798	428.56
234.175	420.04
234.553	421.17
234.93	441.62
235.307	429.98
235.685	425.43
236.062	434.52
236.439	419.19
236.816	402.71
237.194	447.01
237.571	451.84
237.948	440.2
238.325	437.08
238.702	411.52
239.079	443.61
239.456	430.55
239.833	426.85
240.21	441.62
240.587	408.96
240.964	409.53
241.341	405.55
241.718	440.48
242.095	436.79
242.472	441.05
242.849	422.03
243.225	424.01
243.602	453.83
243.979	429.41
244.356	428.84
244.732	404.7
245.109	428.56
245.486	452.97
245.862	428.27
246.239	421.17
246.615	445.88
246.992	437.64
247.368	429.13
247.745	436.22
248.121	444.46
248.497	436.79
248.874	423.45
249.25	432.25
249.626	452.69
250.003	444.74
250.379	412.65
250.755	430.55
251.131	439.63
251.507	423.73
251.884	439.06
252.26	454.11
252.636	460.07
253.012	437.93
253.388	427.71
253.764	437.36
254.14	414.07
254.516	423.45
254.892	448.15
255.268	444.17
255.643	447.86
256.019	448.43
256.395	468.3
256.771	444.74
257.147	445.31
257.522	446.44
257.898	443.89
258.274	450.99
258.649	424.3
259.025	471.71
259.4	421.17
259.776	449.28
260.151	454.68
260.527	433.38
260.902	419.47
261.278	433.67
261.653	456.1
262.028	417.2
262.404	443.89
262.779	443.04
263.154	430.83
263.53	449.57
263.905	460.35
264.28	450.99
264.655	433.38
265.03	448.15
265.405	418.62
265.781	437.93
266.156	437.93
266.531	446.16
266.906	465.46
267.281	452.97
267.655	443.04
268.03	450.7
268.405	448.43
268.78	416.35
269.155	427.71
269.53	427.99
269.904	416.63
270.279	454.11
270.654	465.46
271.029	443.89
271.403	460.35
271.778	437.64
272.152	445.88
272.527	432.82
272.901	450.99
273.276	451.55
273.65	451.84
274.025	468.87
274.399	452.41
274.774	429.98
275.148	446.44
275.522	476.53
275.897	444.17
276.271	477.95
276.645	433.67
277.019	450.7
277.393	459.5
277.768	450.7
278.142	461.77
278.516	445.88
278.89	438.21
279.264	439.35
279.638	447.86
280.012	454.11
280.386	461.21
280.76	454.39
281.133	468.58
281.507	443.89
281.881	462.34
282.255	442.47
282.629	454.39
283.002	454.96
283.376	458.37
283.75	440.2
284.123	455.24
284.497	474.26
284.87	452.12
285.244	475.96
285.618	472.56
285.991	467.17
286.364	454.96
286.738	452.97
287.111	456.38
287.485	456.1
287.858	469.72
288.231	456.95
288.605	464.04
288.978	466.31
289.351	452.12
289.724	431.11
290.097	455.24
290.47	455.24
290.843	456.66
291.217	451.84
291.59	459.22
291.963	447.86
292.336	426
292.708	455.24
293.081	432.53
293.454	474.83
293.827	445.03
294.2	445.88
294.573	475.68
294.945	442.47
295.318	462.06
295.691	439.35
296.064	447.58
296.436	449.57
296.809	453.54
297.181	460.92
297.554	460.07
297.926	462.06
298.299	452.12
298.671	451.55
299.044	450.7
299.416	456.38
299.788	464.33
300.161	449.28
300.533	457.23
300.905	418.9
301.278	441.62
301.65	473.98
302.022	460.92
302.394	443.61
302.766	441.9
303.138	467.45
303.51	456.66
303.882	467.17
304.254	450.14
304.626	452.41
304.998	451.84
305.37	448.15
305.742	431.11
306.114	467.17
306.485	470.29
306.857	438.78
307.229	454.11
307.601	474.83
307.972	451.55
308.344	453.83
308.716	460.64
309.087	436.51
309.459	472.56
309.83	448.72
310.202	456.38
310.573	475.96
310.945	468.58
311.316	458.93
311.687	461.49
312.059	479.94
312.43	492.42
312.801	445.88
313.172	437.08
313.544	473.12
313.915	468.02
314.286	464.33
314.657	474.54
315.028	432.25
315.399	451.27
315.77	472.84
316.141	481.07
316.512	462.91
316.883	467.73
317.254	440.77
317.625	468.3
317.996	453.54
318.366	488.16
318.737	451.84
319.108	462.06
319.478	469.72
319.849	460.64
320.22	458.08
320.59	466.6
320.961	466.88
321.331	466.88
321.702	471.71
322.072	439.35
322.443	454.68
322.813	475.96
323.184	469.44
323.554	457.52
323.924	481.35
324.295	471.71
324.665	462.34
325.035	485.89
325.405	464.33
325.775	450.42
326.145	454.11
326.515	464.61
326.886	441.05
327.256	468.3
327.626	461.21
327.995	453.26
328.365	474.54
328.735	464.61
329.105	443.32
329.475	442.47
329.845	476.25
330.215	482.2
330.584	465.75
330.954	453.83
331.324	468.3
331.693	481.35
332.063	442.47
332.432	464.33
332.802	462.34
333.171	485.89
333.541	455.24
333.91	474.54
334.28	466.03
334.649	462.34
335.018	479.37
335.388	499.51
335.757	459.22
336.126	456.66
336.495	457.52
336.865	481.92
337.234	444.74
337.603	475.96
337.972	456.1
338.341	452.69
338.71	451.84
339.079	461.77
339.448	457.8
339.817	477.1
340.186	468.3
340.554	471.14
340.923	468.58
341.292	471.99
341.661	472.84
342.029	478.23
342.398	462.06
342.767	482.2
343.135	496.39
343.504	463.19
343.872	474.26
344.241	455.24
344.609	475.68
344.978	489.3
345.346	456.95
345.715	491.28
346.083	454.96
346.451	460.35
346.82	455.53
347.188	459.79
347.556	466.03
347.924	444.74
348.292	461.77
348.66	471.42
349.028	468.87
349.396	429.98
349.764	468.87
350.132	470.57
350.5	485.61
350.868	447.01
351.236	483.62
351.604	456.95
351.972	488.73
352.34	482.77
352.707	453.54
353.075	450.42
353.443	449.57
353.81	460.64
354.178	473.12
354.545	458.65
354.913	454.68
355.28	471.99
355.648	464.33
356.015	463.19
356.383	481.07
356.75	465.75
357.117	469.72
357.485	455.24
357.852	471.99
358.219	460.92
358.586	483.06
358.954	464.04
359.321	497.81
359.688	485.04
360.055	433.95
360.422	485.61
360.789	443.32
361.156	479.94
361.523	474.83
361.89	475.39
362.256	481.92
362.623	460.35
362.99	438.5
363.357	447.3
363.724	464.89
364.09	463.76
364.457	470
364.823	480.5
365.19	454.96
365.557	471.42
365.923	465.46
366.29	474.26
366.656	479.65
367.022	492.14
367.389	458.08
367.755	473.69
368.121	479.08
368.488	444.74
368.854	461.21
369.22	456.38
369.586	471.71
369.952	448.72
370.318	491.85
370.684	460.64
371.051	446.73
371.416	473.98
371.782	459.22
372.148	469.72
372.514	454.11
372.88	474.83
373.246	467.45
373.612	463.48
373.977	465.75
374.343	467.73
374.709	471.99
375.074	480.22
375.44	456.66
375.806	466.88
376.171	471.71
376.537	461.21
376.902	493.84
377.268	466.6
377.633	450.42
377.998	466.6
378.364	461.77
378.729	487.88
379.094	478.8
379.459	469.72
379.825	469.72
380.19	470.85
380.555	485.33
380.92	481.64
381.285	476.25
381.65	492.42
382.015	452.41
382.38	466.88
382.745	442.75
383.11	466.88
383.474	465.18
383.839	478.52
384.204	494.4
384.569	481.35
384.933	435.09
385.298	485.33
385.663	445.03
386.027	482.49
386.392	469.15
386.756	466.6
387.121	474.83
387.485	485.89
387.849	479.65
388.214	487.03
388.578	466.31
388.942	447.86
389.307	478.23
389.671	475.39
390.035	472.56
390.399	464.61
390.763	461.21
391.127	472.56
391.492	451.27
391.856	452.97
392.219	478.8
392.583	455.53
392.947	489.01
393.311	487.03
393.675	480.22
394.039	463.48
394.403	462.34
394.766	473.98
395.13	483.34
395.494	464.61
395.857	466.03
396.221	458.93
396.584	460.64
396.948	463.19
397.311	471.42
397.675	480.22
398.038	468.02
398.401	485.33
398.765	465.46
399.128	481.35
399.491	475.96
399.854	467.45
400.218	441.05
400.581	488.45
400.944	462.91
401.307	445.31
401.67	465.18
402.033	460.35
402.396	468.02
402.759	487.03
403.122	463.19
403.485	481.92
403.847	451.84
404.21	462.06
404.573	472.27
404.936	481.92
405.298	454.11
405.661	460.07
406.023	472.56
406.386	491.85
406.749	467.17
407.111	456.1
407.473	466.31
407.836	478.8
408.198	474.54
408.561	440.48
408.923	496.11
409.285	459.5
409.647	457.52
410.009	477.1
410.372	491.57
410.734	451.55
411.096	472.27
411.458	467.45
411.82	456.38
412.182	462.06
412.544	497.24
412.906	467.73
413.267	480.22
413.629	483.34
413.991	465.75
414.353	456.66
414.714	482.2
415.076	469.44
415.438	461.49
415.799	475.39
416.161	476.53
416.522	471.42
416.884	445.88
417.245	494.69
417.607	475.68
417.968	470.29
418.329	479.94
418.691	464.61
419.052	456.66
419.413	452.69
419.774	448.72
420.135	486.46
420.497	491.85
420.858	466.6
421.219	475.68
421.58	473.69
421.941	491.28
422.302	468.02
422.662	472.84
423.023	490.72
423.384	461.77
423.745	429.69
424.106	467.45
424.466	450.42
424.827	467.73
425.187	479.65
425.548	458.37
425.909	483.62
426.269	459.79
426.63	464.04
426.99	480.22
427.35	464.33
427.711	470.57
428.071	449.85
428.431	449.57
428.792	464.61
429.152	470.57
429.512	484.19
429.872	468.02
430.232	479.37
430.592	461.77
430.952	468.87
431.312	456.95
431.672	491
432.032	484.76
432.392	473.98
432.752	445.59
433.111	460.64
433.471	457.52
433.831	473.41
434.19	483.06
434.55	473.41
434.91	471.14
435.269	455.81
435.629	463.48
435.988	477.66
436.348	471.14
436.707	458.93
437.066	476.53
437.426	470
437.785	455.81
438.144	461.77
438.503	462.34
438.862	466.88
439.222	441.9
439.581	512.28
439.94	471.71
440.299	472.84
440.658	480.79
441.017	471.42
441.376	451.27
441.734	450.14
442.093	461.21
442.452	480.79
442.811	481.35
443.169	477.95
443.528	464.61
443.887	468.02
444.245	458.08
444.604	480.79
444.962	479.08
445.321	476.25
445.679	481.07
446.038	455.81
446.396	477.66
446.754	465.18
447.112	468.87
447.471	473.98
447.829	471.42
448.187	471.42
448.545	494.69
448.903	479.37
449.261	464.33
449.619	472.84
449.977	474.54
450.335	464.89
450.693	481.92
451.051	486.74
451.409	483.91
451.766	463.48
452.124	455.24
452.482	447.58
452.839	477.1
453.197	481.92
453.555	475.39
453.912	440.48
454.27	469.15
454.627	456.95
454.984	479.08
455.342	448.72
455.699	462.06
456.056	462.34
456.414	481.64
456.771	466.6
457.128	476.53
457.485	473.12
457.842	481.64
458.199	479.65
458.556	462.62
458.913	473.69
459.27	468.02
459.627	485.61
459.984	474.83
460.341	465.46
460.697	461.49
461.054	428.56
461.411	477.95
461.767	454.96
462.124	472.56
462.481	464.04
462.837	466.03
463.194	437.08
463.55	473.41
463.907	450.42
464.263	495.54
464.619	475.11
464.976	454.68
465.332	475.11
465.688	456.66
466.044	471.99
466.4	505.47
466.756	472.27
467.112	438.5
467.468	453.83
467.824	484.19
468.18	467.45
468.536	462.91
468.892	466.88
469.248	465.46
469.604	446.44
469.959	495.26
470.315	475.96
470.671	481.07
471.026	477.1
471.382	453.83
471.737	483.91
472.093	475.68
472.448	460.35
472.804	460.64
473.159	470.57
473.514	447.58
473.87	485.04
474.225	501.5
474.58	468.02
474.935	487.03
475.29	451.84
475.645	473.98
476	492.14
476.355	433.67
476.71	481.64
477.065	506.04
477.42	466.6
477.775	467.73
478.13	476.53
478.485	458.65
478.839	443.32
479.194	475.11
479.549	445.03
479.903	464.61
480.258	462.34
480.612	488.73
480.967	462.62
481.321	454.96
481.675	477.38
482.03	481.64
482.384	472.84
482.738	467.45
483.093	471.99
483.447	476.53
483.801	453.54
484.155	481.35
484.509	443.61
484.863	485.61
485.217	452.41
485.571	475.96
485.925	489.87
486.279	463.76
486.632	461.49
486.986	473.12
487.34	491
487.694	464.04
488.047	457.8
488.401	480.22
488.754	471.42
489.108	446.16
489.461	474.54
489.815	450.99
490.168	468.02
490.522	472.56
490.875	458.65
491.228	468.02
491.581	486.74
491.935	469.72
492.288	479.65
492.641	447.58
492.994	480.22
493.347	455.24
493.7	491.28
494.053	480.22
494.406	465.18
494.759	465.75
495.111	458.65
495.464	470.85
495.817	477.38
496.169	472.84
496.522	464.89
496.875	465.18
497.227	456.38
497.58	459.79
497.932	480.5
498.285	479.94
498.637	463.48
498.989	446.16
499.342	453.54
499.694	472.56
500.046	454.96
500.398	467.17
500.751	469.15
501.103	469.44
501.455	474.54
501.807	468.87
502.159	465.75
502.511	460.35
502.862	459.22
503.214	489.3
503.566	469.72
503.918	461.49
504.27	475.39
504.621	503.2
504.973	489.3
505.324	464.89
505.676	482.49
506.027	449.28
506.379	455.53
506.73	461.77
507.082	474.83
507.433	468.87
507.784	457.23
508.136	460.35
508.487	460.35
508.838	485.61
509.189	477.95
509.54	455.53
509.891	469.15
510.242	478.52
510.593	459.79
510.944	462.91
511.295	465.18
511.646	450.14
511.996	464.61
512.347	479.08
512.698	465.46
513.049	449.85
513.399	450.99
513.75	449.28
514.1	458.93
514.451	476.53
514.801	455.24
515.152	462.91
515.502	480.79
515.852	469.15
516.202	491.57
516.553	469.44
516.903	486.46
517.253	473.12
517.603	455.24
517.953	464.33
518.303	481.07
518.653	467.73
519.003	481.64
519.353	472.27
519.703	467.17
520.052	465.18
520.402	463.76
520.752	480.22
521.102	471.42
521.451	456.66
521.801	492.14
522.15	472.27
522.5	471.42
522.849	458.08
523.199	443.04
523.548	462.34
523.897	478.8
524.246	475.11
524.596	494.69
524.945	464.04
525.294	477.38
525.643	471.14
525.992	457.52
526.341	449.57
526.69	468.02
527.039	450.42
527.388	458.08
527.737	464.33
528.086	496.67
528.434	480.22
528.783	478.52
529.132	477.66
529.48	475.68
529.829	496.96
530.177	463.76
530.526	477.38
530.874	456.1
531.223	468.87
531.571	464.61
531.919	457.23
532.268	485.33
532.616	485.33
532.964	449.57
533.312	455.53
533.66	460.64
534.008	494.97
534.356	470.85
534.704	467.45
535.052	449.57
535.4	458.93
535.748	457.8
536.095	444.46
536.443	491.57
536.791	459.5
537.139	459.79
537.486	463.48
537.834	439.63
538.181	447.86
538.529	473.41
538.876	459.79
539.223	458.37
539.571	467.17
539.918	456.95
540.265	455.53
540.613	467.45
540.96	466.31
541.307	479.37
541.654	454.68
542.001	499.51
542.348	485.33
542.695	473.41
543.042	464.89
543.388	461.49
543.735	442.75
544.082	442.47
544.429	444.46
544.775	445.03
545.122	465.18
545.469	470.57
545.815	468.3
546.162	503.77
546.508	457.8
546.854	456.1
547.201	482.49
547.547	455.81
547.893	466.03
548.24	454.39
548.586	453.26
548.932	435.94
549.278	458.93
549.624	477.1
549.97	470.85
550.316	465.46
550.662	472.27
551.008	451.27
551.353	452.97
551.699	496.39
552.045	455.81
552.391	473.98
552.736	457.52
553.082	435.37
553.427	467.17
553.773	476.25
554.118	472.56
554.464	471.42
554.809	481.07
555.154	453.83
555.5	465.18
555.845	450.99
556.19	483.91
556.535	458.65
556.88	459.22
557.225	458.65
557.57	468.58
557.915	462.34
558.26	458.37
558.605	481.07
558.95	465.46
559.295	471.99
559.639	446.16
559.984	464.33
560.329	444.17
560.673	454.11
561.018	467.73
561.362	466.6
561.707	478.8
562.051	461.21
562.395	468.02
562.74	432.53
563.084	460.92
563.428	480.79
563.772	454.68
564.117	447.58
564.461	466.88
564.805	475.96
565.149	474.83
565.493	499.23
565.836	473.69
566.18	475.68
566.524	470.85
566.868	466.03
567.212	462.34
567.555	493.27
567.899	454.11
568.242	473.41
568.586	472.27
568.929	470.29
569.273	470.29
569.616	471.99
569.96	479.37
570.303	429.98
570.646	499.23
570.989	470.85
571.333	452.97
571.676	460.64
572.019	459.5
572.362	474.83
572.705	475.68
573.048	454.11
573.391	464.89
573.733	452.69
574.076	469.44
574.419	465.75
574.762	456.66
575.104	471.42
575.447	448.43
575.789	459.5
576.132	459.22
576.474	479.37
576.817	461.21
577.159	456.66
577.501	456.95
577.844	457.52
578.186	473.41
578.528	475.11
578.87	454.96
579.212	445.59
579.554	434.24
579.896	445.31
580.238	487.88
580.58	467.45
580.922	475.39
581.264	457.8
581.606	470
581.947	465.75
582.289	467.73
582.631	457.23
582.972	438.5
583.314	469.44
583.655	468.58
583.997	477.1
584.338	476.81
584.679	491.85
585.021	440.77
585.362	481.07
585.703	450.42
586.044	454.68
586.385	473.69
586.726	471.14
587.067	465.46
587.408	447.86
587.749	470.85
588.09	467.45
588.431	461.49
588.772	450.14
589.113	459.5
589.453	433.1
589.794	466.31
590.134	464.61
590.475	471.14
590.815	452.41
591.156	475.68
591.496	469.44
591.837	475.68
592.177	476.81
592.517	459.79
592.857	462.34
593.198	491
593.538	440.2
593.878	455.81
594.218	464.61
594.558	431.97
594.898	479.37
595.237	447.01
595.577	461.21
595.917	477.95
596.257	450.99
596.596	459.22
596.936	465.46
597.276	465.18
597.615	486.46
597.955	458.08
598.294	458.37
598.633	469.15
598.973	470.57
599.312	472.84
599.651	468.87
599.991	488.16
600.33	466.88
600.669	468.3
601.008	465.18
601.347	486.74
601.686	464.04
602.025	474.26
602.364	490.15
602.702	489.3
603.041	458.37
603.38	441.33
603.719	460.92
604.057	454.39
604.396	451.84
604.734	460.35
605.073	438.21
605.411	454.68
605.75	458.08
606.088	475.96
606.426	454.68
606.764	443.04
607.103	456.1
607.441	465.46
607.779	463.48
608.117	446.16
608.455	469.15
608.793	476.25
609.131	436.79
609.469	424.01
609.806	493.84
610.144	470.85
610.482	462.62
610.819	465.46
611.157	450.14
611.495	456.95
611.832	460.64
612.17	450.14
612.507	475.39
612.844	454.68
613.182	459.79
613.519	455.53
613.856	476.81
614.193	471.42
614.53	475.11
614.867	430.83
615.205	470.57
615.541	451.55
615.878	475.39
616.215	455.53
616.552	473.69
616.889	432.25
617.226	463.19
617.562	464.33
617.899	457.52
618.235	494.97
618.572	429.41
618.908	453.54
619.245	462.91
619.581	462.06
619.918	475.96
620.254	459.5
620.59	459.22
620.926	459.79
621.262	461.49
621.599	454.96
621.935	449.28
622.271	445.59
622.606	494.69
622.942	465.75
623.278	460.07
623.614	470.85
623.95	444.46
624.285	464.33
624.621	494.12
624.957	466.31
625.292	480.5
625.628	453.54
