Data from FLMS007011_12-18-13-117.txt Node
Date: Thu Apr 21 12:18:13 MDT 2016
User: lab_user
Spectrometer: FLMS00701
Autoset integration time: false
Trigger mode: 0
Integration Time (sec): 5.000000E-3
Scans to average: 10
Electric dark correction enabled: true
Nonlinearity correction enabled: true
Boxcar width: 0
XAxis mode: Wavelengths
Stop averaging: false
Number of Pixels in Spectrum: 2048
>>>>>Begin Spectral Data<<<<<
178.41	41.98
178.791	41.98
179.172	41.98
179.553	-61.16
179.934	-50.87
180.316	-67.74
180.697	-44.58
181.078	-91.48
181.459	-42.87
181.84	-42.87
182.221	-16.29
182.602	-23.72
182.983	0.29
183.364	23.99
183.744	35.99
184.125	77.09
184.506	79.38
184.887	98.49
185.268	135.29
185.648	163.51
186.029	179.75
186.41	205.11
186.791	246.97
187.171	283.4
187.552	326.92
187.932	351.66
188.313	385.19
188.694	414.45
189.074	400.25
189.455	425.24
189.835	443.7
190.216	470.67
190.596	481.16
190.977	484
191.357	503.86
191.737	522.58
192.118	528.82
192.498	546.96
192.878	528.53
193.258	530.52
193.639	522.86
194.019	561.7
194.399	536.19
194.779	587.21
195.159	550.93
195.54	573.89
195.92	562.55
196.3	575.02
196.68	594.29
197.06	559.72
197.44	566.24
197.82	565.1
198.2	580.41
198.58	574.46
198.959	590.04
199.339	563.12
199.719	575.31
200.099	573.32
200.479	572.76
200.858	577.29
201.238	581.54
201.618	587.49
201.998	583.81
202.377	604.2
202.757	597.12
203.136	583.81
203.516	597.69
203.896	601.37
204.275	622.33
204.655	607.6
205.034	609.58
205.414	594.29
205.793	622.9
206.172	595.71
206.552	605.34
206.931	610.43
207.31	646.96
207.69	601.94
208.069	622.9
208.448	638.19
208.827	597.12
209.207	637.05
209.586	654.6
209.965	641.87
210.344	661.96
210.723	643.56
211.102	649.23
211.481	676.4
211.86	702.14
212.239	677.25
212.618	704.69
212.997	693.66
213.376	715.15
213.755	712.89
214.134	745.41
214.513	717.42
214.891	759.26
215.27	768.58
215.649	793.73
216.028	792.32
216.406	794.58
216.785	776.78
217.164	792.04
217.542	839.2
217.921	809.83
218.3	857.83
218.678	860.09
219.057	903.82
219.435	901.29
219.814	888.03
220.192	917.36
220.57	953.45
220.949	959.37
221.327	990.37
221.705	1019.1
222.084	1046.98
222.462	1099.32
222.84	1088.35
223.218	1124.35
223.597	1137.29
223.975	1165.96
224.353	1230.29
224.731	1230.01
225.109	1301.86
225.487	1340.85
225.865	1374.2
226.243	1393.54
226.621	1433.87
226.999	1486.22
227.377	1552.51
227.755	1571.24
228.133	1672.07
228.511	1670.68
228.889	1730.11
229.266	1750.19
229.644	1867.21
230.022	1882.24
230.4	1927.87
230.777	2014.61
231.155	2023.78
231.533	2107.36
231.91	2145.64
232.288	2223.55
232.665	2313.55
233.043	2365.84
233.42	2397.36
233.798	2481.91
234.175	2491.3
234.553	2594.23
234.93	2620.97
235.307	2686.55
235.685	2735.56
236.062	2860.15
236.439	2907.41
236.816	2979.88
237.194	3015
237.571	3148.46
237.948	3158.59
238.325	3242.6
238.702	3283.62
239.079	3339.36
239.456	3401.89
239.833	3474.74
240.21	3511.82
240.587	3601.73
240.964	3683.38
241.341	3736.95
241.718	3804.07
242.095	3799.45
242.472	3889.31
242.849	3948.17
243.225	4013.5
243.602	4101.78
243.979	4106.38
244.356	4191.86
244.732	4217.81
245.109	4321.54
245.486	4361.21
245.862	4421.9
246.239	4452.91
246.615	4557.16
246.992	4605.34
247.368	4621.75
247.745	4699.73
248.121	4811.74
248.497	4905.11
248.874	4872.65
249.25	4913.15
249.626	4970.78
250.003	5019.27
250.379	5141.58
250.755	5151.2
251.131	5228.72
251.507	5242.62
251.884	5320.86
252.26	5298.97
252.636	5344.08
253.012	5476.87
253.388	5557.58
253.764	5555.18
254.14	5603.89
254.516	5620.12
254.892	5639.81
255.268	5689.27
255.643	5748.28
256.019	5743.23
256.395	5823.97
256.771	5829.54
257.147	5897.74
257.522	5873.34
257.898	5935.67
258.274	5971.2
258.649	5962.72
259.025	6013.33
259.4	6081.93
259.776	6044.06
260.151	6086.17
260.527	6092.52
260.902	6195.98
261.278	6153.92
261.653	6157.36
262.028	6148.9
262.404	6214.76
262.779	6212.11
263.154	6289.03
263.53	6261.81
263.905	6224.01
264.28	6238.55
264.655	6269.21
265.03	6300.65
265.405	6325.48
265.781	6267.89
266.156	6354.53
266.531	6388.58
266.906	6367.99
267.281	6412.33
267.655	6363.5
268.03	6335.78
268.405	6341.06
268.78	6340.8
269.155	6402.57
269.53	6368.25
269.904	6392.8
270.279	6364.56
270.654	6457.44
271.029	6400.19
271.403	6341.85
271.778	6315.44
272.152	6364.29
272.527	6346.34
272.901	6441.62
273.276	6384.09
273.65	6372.74
274.025	6404.41
274.399	6371.95
274.774	6334.72
275.148	6405.47
275.522	6378.02
275.897	6356.37
276.271	6341.85
276.645	6379.34
277.019	6402.57
277.393	6406.53
277.768	6357.96
278.142	6369.05
278.516	6365.09
278.89	6354
279.264	6349.77
279.638	6395.18
280.012	6309.1
280.386	6248.86
280.76	6282.95
281.133	6274.23
281.507	6328.91
281.881	6274.23
282.255	6313.59
282.629	6184.87
283.002	6265.77
283.376	6246.74
283.75	6233.26
284.123	6176.94
284.497	6140.69
284.87	6175.09
285.244	6166.62
285.618	6136.46
285.991	6025.79
286.364	6093.58
286.738	6043.27
287.111	6088.29
287.485	5998.23
287.858	6001.15
288.231	5939.12
288.605	5978.88
288.978	5965.37
289.351	5843.61
289.724	5804.06
290.097	5857.15
290.47	5780.69
290.843	5696.72
291.217	5678.9
291.59	5635.55
291.963	5634.49
292.336	5598.57
292.708	5513.64
293.081	5554.38
293.454	5581.8
293.827	5498.46
294.2	5404.1
294.573	5404.1
294.945	5312.32
295.318	5382.76
295.691	5282.95
296.064	5305.64
296.436	5252.77
296.809	5237.81
297.181	5157.09
297.554	5138.1
297.926	5170.46
298.299	5097.44
298.671	5108.41
299.044	5074.96
299.416	5000.25
299.788	4952.83
300.161	4955.51
300.533	4916.37
300.905	4910.47
301.278	4920.93
301.65	4895.18
302.022	4840.99
302.394	4807.44
302.766	4800.73
303.138	4798.32
303.51	4835.36
303.882	4757.5
304.254	4750.25
304.626	4754.01
304.998	4770.66
305.37	4752.13
305.742	4697.04
306.114	4699.46
306.485	4731.44
306.857	4705.1
307.229	4676.61
307.601	4684.68
307.972	4702.95
308.344	4755.35
308.716	4667.47
309.087	4789.19
309.459	4749.17
309.83	4760.45
310.202	4785.7
310.573	4824.89
310.945	4821.4
311.316	4844.75
311.687	4905.11
312.059	4930.58
312.43	4947.2
312.801	4994.36
313.172	5029.18
313.544	5031.32
313.915	5140.77
314.286	5101.99
314.657	5067.73
315.028	5111.35
315.399	5066.66
315.77	5147.73
316.141	5058.9
316.512	5108.41
316.883	5041.76
317.254	5022.75
317.625	4959.53
317.996	4975.34
318.366	4956.85
318.737	4957.11
319.108	4972.39
319.478	4946.93
319.849	4997.04
320.22	5040.42
320.59	5034.8
320.961	5095.56
321.331	5123.66
321.702	5094.76
322.072	5140.51
322.443	5218.84
322.813	5242.35
323.184	5234.33
323.554	5218.84
323.924	5263.45
324.295	5173.4
324.665	5130.08
325.035	5139.7
325.405	5104.66
325.775	4969.44
326.145	4945.86
326.515	4864.34
326.886	4740.57
327.256	4627.67
327.626	4491.98
327.995	4394.39
328.365	4232.13
328.735	4069.83
329.105	3926.75
329.475	3894.47
329.845	3914.27
330.215	3939.77
330.584	3979.89
330.954	3985.31
331.324	3949.26
331.693	3965.8
332.063	3893.38
332.432	3877.91
332.802	3820.9
333.171	3706.49
333.541	3636.3
333.91	3653.99
334.28	3662.7
334.649	3698.88
335.018	3814.66
335.388	3925.94
335.757	3990.46
336.126	4124.51
336.495	4406.26
336.865	4538.85
337.234	4660.48
337.603	4910.74
337.972	5112.95
338.341	5439.29
338.71	5683.42
339.079	5913.66
339.448	6209.47
339.817	6461.66
340.186	6701.64
340.554	7021.61
340.923	7223.65
341.292	7478.32
341.661	7777.47
342.029	8019.69
342.398	8304.44
342.767	8498.97
343.135	8826.96
343.504	9009.57
343.872	9300.21
344.241	9513.72
344.609	9615.59
344.978	9868.28
345.346	10186.16
345.715	10283.96
346.083	10403.12
346.451	10600.91
346.82	10678.06
347.188	10916.16
347.556	10976.89
347.924	11130.78
348.292	11283
348.66	11356.77
349.028	11457.11
349.396	11453.31
349.764	11683.91
350.132	11793.66
350.5	11834.35
350.868	11887.92
351.236	11966.73
351.604	11994.25
351.972	12077.55
352.34	12085.63
352.707	12242.78
353.075	12241.01
353.443	12200.16
353.81	12258.16
354.178	12328.48
354.545	12446.64
354.913	12449.16
355.28	12489.2
355.648	12541.31
356.015	12579.32
356.383	12644.74
356.75	12667.38
357.117	12619.08
357.485	12657.07
357.852	12648.01
358.219	12747.11
358.586	12712.4
358.954	12698.07
359.321	12753.9
359.688	12705.61
360.055	12823.28
360.422	12839.87
360.789	12730.26
361.156	12830.57
361.523	12673.17
361.89	12830.32
362.256	12825.79
362.623	12785.32
362.99	12734.03
363.357	12687.25
363.724	12794.88
364.09	12817.25
364.457	12786.83
364.823	12931.83
365.19	12869.77
365.557	12932.84
365.923	12934.34
366.29	12888.12
366.656	12937.11
367.022	12991.11
367.389	12971.02
367.755	12796.64
368.121	12788.84
368.488	12941.13
368.854	12823.53
369.22	12756.91
369.586	12645.24
369.952	12653.04
370.318	12558.18
370.684	12593.66
371.051	12589.89
371.416	12504.3
371.782	12607.75
372.148	12481.14
372.514	12473.84
372.88	12454.95
373.246	12432.28
373.612	12482.15
373.977	12506.57
374.343	12654.3
374.709	12762.44
375.074	12649.52
375.44	12587.12
375.806	12495.24
376.171	12550.12
376.537	12540.05
376.902	12495.74
377.268	12754.4
377.633	12674.42
377.998	12759.68
378.364	12947.16
378.729	12940.37
379.094	12974.03
379.459	12639.46
379.825	12546.85
380.19	12566.48
380.555	12453.44
380.92	12305.3
381.285	12176.96
381.65	12289.67
382.015	12319.91
382.38	12345.87
382.745	12174.44
383.11	12154.76
383.474	12104.05
383.839	12130.54
384.204	12110.61
384.569	12058.62
384.933	12011.92
385.298	11929.1
385.663	11958.9
386.027	11923.29
386.392	12122.22
386.756	12219.33
387.121	12355.19
387.485	12367.54
387.849	12496.25
388.214	12294.21
388.578	12284.12
388.942	12012.68
389.307	12079.57
389.671	11936.17
390.035	12115.91
390.399	12120.45
390.763	12179.23
391.127	12412.64
391.492	12645.75
391.856	12915
392.219	13238.57
392.583	13291.49
392.947	12874.8
393.311	12479.63
393.675	12398.03
394.039	12293.7
394.403	12176.71
394.766	12079.57
395.13	12068.97
395.494	11996.02
395.857	12145.93
396.221	12358.97
396.584	12419.69
396.948	12725.98
397.311	13080.49
397.675	13259.64
398.038	13306.28
398.401	13120.9
398.765	12784.57
399.128	12459.99
399.491	12127.77
399.854	12054.59
400.218	12040.7
400.581	11970.77
400.944	11958.39
401.307	11666.71
401.67	11738.79
402.033	11642.68
402.396	11644.95
402.759	11583.46
403.122	11665.95
403.485	11760.79
403.847	11905.1
404.21	12084.11
404.573	12288.91
404.936	12285.13
405.298	12225.13
405.661	11884.64
406.023	11512.07
406.386	11378.82
406.749	11348.16
407.111	11299.48
407.473	11546.5
407.836	11666.2
408.198	11850.02
408.561	11918.49
408.923	11850.52
409.285	11862.91
409.647	11650.52
410.009	11519.16
410.372	11444.95
410.734	11380.6
411.096	11330.92
411.458	11446.98
411.82	11535.62
412.182	11720.08
412.544	11780.01
412.906	11801.75
413.267	11840.42
413.629	11617.12
413.991	11478.39
414.353	11412.52
414.714	11260.94
415.076	11254.6
415.438	11284.27
415.799	11348.66
416.161	11243.44
416.522	11103.37
416.884	11121.65
417.245	11113.52
417.607	11108.19
417.968	11054.36
418.329	11176.21
418.691	11171.14
419.052	11171.39
419.413	11297.96
419.774	11439.38
420.135	11871.24
420.497	12278.83
420.858	12658.07
421.219	12760.18
421.58	12546.85
421.941	12296.47
422.302	11759.53
422.662	11701.62
423.023	11477.12
423.384	11412.02
423.745	11486.49
424.106	11545.24
424.466	11732.72
424.827	11492.32
425.187	11142.71
425.548	10947.42
425.909	10704.28
426.269	10892.52
426.63	10945.13
426.99	11312.92
427.35	11190.93
427.711	11112.76
428.071	11382.12
428.431	11667.72
428.792	12491.97
429.152	13339.38
429.512	13589.68
429.872	13520.56
430.232	13206.46
430.592	12688.26
430.952	11870.74
431.312	11283
431.672	10865.82
432.032	10822.34
432.392	11076.46
432.752	11807.56
433.111	12658.07
433.471	12840.62
433.831	12045.25
434.19	11666.96
434.55	11621.42
434.91	11379.58
435.269	11604.21
435.629	11594.34
435.988	11757
436.348	11642.93
436.707	11296.95
437.066	11179
437.426	11314.69
437.785	11457.62
438.144	11518.91
438.503	11354.75
438.862	11306.84
439.222	11103.11
439.581	10870.91
439.94	11080.26
440.299	11751.18
440.658	12338.06
441.017	12663.36
441.376	12612.53
441.734	12266.48
442.093	12089.41
442.452	12216.55
442.811	12442.11
443.169	12436.56
443.528	12144.92
443.887	11918.23
444.245	11891.46
444.604	11685.94
444.962	11567.51
445.321	11489.02
445.679	11564.98
446.038	11748.4
446.396	11527.51
446.754	11180.52
447.112	11051.32
447.471	10983.24
447.829	10754.16
448.187	10819.54
448.545	10900.14
448.903	10808.1
449.261	10876.25
449.619	10687.23
449.977	10578.24
450.335	10393.17
450.693	10280.64
451.051	10237.24
451.409	10258.94
451.766	10371.49
452.124	10071.16
452.482	9810.66
452.839	9580.96
453.197	9480.34
453.555	9394.29
453.912	9425.89
454.27	9592.5
454.627	9907.44
454.984	9957.09
455.342	9767.36
455.699	9533.48
456.056	9494.97
456.414	9710.21
456.771	9997.77
457.128	10151.92
457.485	10173.9
457.842	10111.04
458.199	10174.92
458.556	10311.27
458.913	10305.66
459.27	10466.61
459.627	10259.96
459.984	10287.02
460.341	10343.94
460.697	10192.54
461.054	9735.59
461.411	9289.15
461.767	8955.69
462.124	8965.75
462.481	9084.29
462.837	9365.51
463.194	9873.4
463.55	9677.91
463.907	10158.06
464.263	10452.59
464.619	10848.02
464.976	11201.33
465.332	11358.29
465.688	11027.19
466.044	10253.32
466.4	9790.42
466.756	9526.29
467.112	9539.38
467.468	9503.45
467.824	9417.15
468.18	9229.99
468.536	9156.65
468.892	8881.92
469.248	8795.21
469.604	8685.69
469.959	8639.42
470.315	8690.34
470.671	8591.07
471.026	8709.2
471.382	8894.82
471.737	9063.16
472.093	9223.82
472.448	9526.55
472.804	9881.59
473.159	10010.81
473.514	10150.39
473.87	10212.72
474.225	10635.8
474.58	11137.89
474.935	11264.74
475.29	11046.49
475.645	10875.23
476	10738.64
476.355	10679.85
476.71	10466.87
477.065	10941.32
477.42	11366.91
477.775	11490.8
478.13	11265.5
478.485	11484.97
478.839	11434.31
479.194	12031.11
479.549	12549.62
479.903	12684.74
480.258	12442.36
480.612	12593.41
480.967	13033.04
481.321	13319.57
481.675	13042.84
482.03	12451.93
482.384	12238.49
482.738	12311.6
483.093	12432.28
483.447	12918.52
483.801	13700.08
484.155	14240.27
484.509	15895.82
484.863	32749.69
485.217	45702.5
485.571	50510.91
485.925	37515.29
486.279	25511.65
486.632	19214.7
486.986	16185.03
487.34	14454.65
487.694	13302.52
488.047	12788.09
488.401	12917.01
488.754	12829.06
489.108	12481.14
489.461	12303.53
489.815	12035.4
490.168	12154.76
490.522	12234.71
490.875	12302.02
491.228	12202.18
491.581	12180.74
491.935	12193.86
492.288	12111.87
492.641	12312.1
492.994	12199.4
493.347	12566.48
493.7	12660.09
494.053	12526.46
494.406	12447.39
494.759	11793.4
495.111	12194.36
495.464	13073.46
495.817	13924.21
496.169	13735.11
496.522	12692.79
496.875	11718.31
497.227	11352.21
497.58	11181.54
497.932	11532.83
498.285	11557.13
498.637	12012.18
498.989	12504.56
499.342	12492.97
499.694	12094.46
500.046	11660.64
500.398	12003.09
500.751	12393.24
501.103	12474.84
501.455	12552.39
501.807	12482.4
502.159	12443.36
502.511	12469.56
502.862	12451.68
503.214	12199.15
503.566	11804.27
503.918	11393.27
504.27	11321.54
504.621	11374.26
504.973	11268.29
505.324	11391.49
505.676	11630.53
506.027	11760.03
506.379	11190.93
506.73	10758.23
507.082	10681.88
507.433	10994.93
507.784	11280.72
508.136	11049.54
508.487	10911.84
508.838	10607.28
509.189	10596.32
509.54	10763.58
509.891	10612.62
510.242	10643.18
510.593	10436.53
510.944	10350.06
511.295	10130.46
511.646	9843.7
511.996	9811.68
512.347	10011.84
512.698	10080.88
513.049	9964
513.399	9779.15
513.75	9797.59
514.1	9621.49
514.451	9264.21
514.801	9157.16
515.152	9249.29
515.502	9522.96
515.852	9722.77
516.202	9766.59
516.553	9639.19
516.903	9355.74
517.253	9006.47
517.603	8892.5
517.953	8923.2
518.303	9316.67
518.653	9529.89
519.003	9571.98
519.353	9031.99
519.703	8601.93
520.052	8365.86
520.402	8345.39
520.752	8598.57
521.102	8598.57
521.451	8416.38
521.801	8321.54
522.15	8427.51
522.5	8607.11
522.849	8639.42
523.199	8796.5
523.548	8895.34
523.897	8883.73
524.246	8683.36
524.596	8335.8
524.945	8306.77
525.294	8369.75
525.643	8427
525.992	8427.25
526.341	8571.16
526.69	8467.91
527.039	8348.76
527.388	8106.46
527.737	8477.23
528.086	9054.4
528.434	9571.72
528.783	9402.25
529.132	9023.74
529.48	8674.32
529.829	8516.31
530.177	8443.83
530.526	8304.18
530.874	8374.41
531.223	8461.17
531.571	8400.58
531.919	8375.19
532.268	8819.99
532.616	9400.71
532.964	9906.17
533.312	9985.49
533.66	9880.31
534.008	9840.11
534.356	9834.48
534.704	9765.57
535.052	9540.92
535.4	9214.81
535.748	8734.52
536.095	8252.06
536.443	8162.8
536.791	8360.94
537.139	8740.2
537.486	9230.76
537.834	9482.91
538.181	9595.07
538.529	9541.69
538.876	9531.68
539.223	9309.47
539.571	8971.93
539.918	8898.95
540.265	9104.89
540.613	9472.89
540.96	9411.25
541.307	9351.63
541.654	9216.87
542.001	9192.17
542.348	9303.3
542.695	9172.35
543.042	9407.65
543.388	9700.22
543.735	9756.6
544.082	9841.9
544.429	9799.64
544.775	9444.13
545.122	8943.57
545.469	8582.8
545.815	8492.5
546.162	8700.68
546.508	8936.61
546.854	9506.27
547.201	10372.51
547.547	10730.24
547.893	10381.18
548.24	9561.97
548.586	8550.72
548.932	8215.22
549.278	8037.88
549.624	8284.47
549.97	8267.88
550.316	7907.62
550.662	7688.1
551.008	8133.98
551.353	9195
551.699	9946.35
552.045	9799.13
552.391	9105.15
552.736	8869.02
553.082	8837.02
553.427	8714.37
553.773	8251.54
554.118	7945.34
554.464	8253.09
554.809	8852.25
555.154	9452.6
555.5	9395.06
555.845	8966.52
556.19	8371.82
556.535	7947.42
556.88	8079.19
557.225	8260.1
557.57	7996.56
557.915	7645.08
558.26	7365.44
558.605	7326.22
558.95	7587.44
559.295	8271.77
559.639	9081.45
559.984	9793.75
560.329	10103.37
560.673	10092.89
561.018	9619.95
561.362	9093.04
561.707	8550.72
562.051	8716.69
562.395	8770.94
562.74	9336.46
563.084	9542.72
563.428	9920.75
563.772	9928.18
564.117	10036.9
564.461	10044.06
564.805	9835.76
565.149	9985.23
565.493	10012.6
565.836	10290.09
566.18	10609.06
566.524	11820.2
566.868	12849.92
567.212	13416.33
567.555	13596.94
567.899	14687.29
568.242	16038.23
568.586	18136.98
568.929	20665.2
569.273	23566.75
569.616	24180.43
569.96	24587.26
570.303	26094.56
570.646	26953.56
570.989	28468.44
571.333	28493.5
571.676	26884.08
572.019	22892.41
572.362	23572.4
572.705	27715.88
573.048	31788.73
573.391	33846.52
573.733	35252.2
574.076	36202.63
574.419	34879.59
574.762	31145.03
575.104	27415.73
575.447	26218.76
575.789	29479.03
576.132	34365.18
576.474	35349.51
576.817	40478.13
577.159	46449.13
577.501	48307.04
577.844	42748.59
578.186	33220.57
578.528	28615.65
578.87	28458.36
579.212	29854.57
579.554	33191.97
579.896	32622.26
580.238	35161.08
580.58	46634.87
580.922	54499.17
581.264	58665.76
581.606	51127.74
581.947	43981.88
582.289	35301.35
582.631	27941.64
582.972	23781.21
583.314	23956.16
583.655	25432.87
583.997	30488.33
584.338	36137.63
584.679	40362.39
585.021	39828.43
585.362	34134.69
585.703	28949.44
586.044	26952.34
586.385	30193.56
586.726	33833.94
587.067	33328.08
587.408	29235.11
587.749	26449.27
588.09	24050.63
588.431	21844.26
588.772	19572.6
589.113	20048.38
589.453	20511.83
589.794	19862.92
590.134	17773.95
590.475	16499.75
590.815	16591.38
591.156	16941.36
591.496	17226.99
591.837	22687.48
592.177	28493.5
592.517	32730.71
592.857	30229.48
593.198	26300.02
