Data from FLMS007011_11-34-41-678.txt Node
Date: Thu Apr 21 11:34:41 MDT 2016
User: lab_user
Spectrometer: FLMS00701
Autoset integration time: false
Trigger mode: 0
Integration Time (sec): 5.000000E-3
Scans to average: 10
Electric dark correction enabled: true
Nonlinearity correction enabled: true
Boxcar width: 0
XAxis mode: Wavelengths
Stop averaging: false
Number of Pixels in Spectrum: 2048
>>>>>Begin Spectral Data<<<<<
178.41	20.95
178.791	20.95
179.172	20.95
179.553	-49.06
179.934	-47.35
180.316	-64.79
180.697	-64.79
181.078	-77.94
181.459	-45.63
181.84	-17.33
182.221	-0.76
182.602	-5.05
182.983	6.95
183.364	10.66
183.744	50.36
184.125	61.49
184.506	74.91
184.887	105.15
185.268	128.82
185.648	141.94
186.029	162.46
186.41	161.32
186.791	211.19
187.171	234.54
187.552	338.96
187.932	387.28
188.313	404.61
188.694	402.62
189.074	444.08
189.455	424.77
189.835	446.35
190.216	451.18
190.596	482.39
190.977	508.49
191.357	518.99
191.737	512.46
192.118	513.6
192.498	551.88
192.878	530.9
193.258	554.43
193.639	556.13
194.019	569.45
194.399	573.98
194.779	589
195.159	566.05
195.54	594.95
195.92	597.5
196.3	593.25
196.68	614.49
197.06	604.86
197.44	590.7
197.82	604.58
198.2	579.37
198.58	590.98
198.959	590.42
199.339	584.18
199.719	597.78
200.099	570.3
200.479	581.07
200.858	599.77
201.238	589.28
201.618	609.96
201.998	590.42
202.377	586.17
202.757	602.31
203.136	613.93
203.516	630.35
203.896	609.96
204.275	606
204.655	636.58
205.034	639.13
205.414	641.11
205.793	649.89
206.172	626.67
206.552	641.11
206.931	669.13
207.31	639.41
207.69	657.81
208.069	677.91
208.448	678.75
208.827	710.44
209.207	694.6
209.586	719.49
209.965	699.97
210.344	717.23
210.723	745.5
211.102	765.29
211.481	763.03
211.86	780.26
212.239	787.33
212.618	810.21
212.997	823.2
213.376	829.7
213.755	827.72
214.134	857.93
214.513	886.43
214.891	878.53
215.27	891.51
215.649	916.61
216.028	939.17
216.406	956.08
216.785	976.94
217.164	973.84
217.542	1012.44
217.921	1070.71
218.3	1042.28
218.678	1049.88
219.057	1078.59
219.435	1116.01
219.814	1153.4
220.192	1176.73
220.57	1211.85
220.949	1252
221.327	1289.33
221.705	1303.92
222.084	1334.21
222.462	1364.21
222.84	1388.87
223.218	1411
223.597	1481.28
223.975	1519.33
224.353	1564.62
224.731	1602.63
225.109	1659.32
225.487	1690.31
225.865	1754.18
226.243	1820.23
226.621	1851.43
226.999	1893.74
227.377	1946.88
227.755	1984.69
228.133	2076.36
228.511	2080.53
228.889	2136.03
229.266	2199.25
229.644	2246.91
230.022	2364.55
230.4	2381.42
230.777	2456.59
231.155	2547.7
231.533	2567.29
231.91	2623.54
232.288	2676.45
232.665	2746.66
233.043	2840.46
233.42	2864.92
233.798	2950.33
234.175	3059.79
234.553	3071.85
234.93	3183.32
235.307	3238.32
235.685	3284.8
236.062	3361.3
236.439	3419.18
236.816	3498.83
237.194	3596.92
237.571	3637.21
237.948	3659.25
238.325	3786.23
238.702	3834.84
239.079	3947.72
239.456	3966.97
239.833	4036.88
240.21	4148.95
240.587	4191.14
240.964	4287.88
241.341	4335.66
241.718	4433.05
242.095	4456.23
242.472	4547.82
242.849	4626.14
243.225	4755.17
243.602	4728.84
243.979	4789.01
244.356	4828.47
244.732	4944.61
245.109	5071.03
245.486	5043.19
245.862	5140.6
246.239	5224.8
246.615	5328.15
246.992	5386.59
247.368	5398.05
247.745	5470.57
248.121	5614.09
248.497	5615.16
248.874	5695.21
249.25	5823.26
249.626	5859.63
250.003	5935.76
250.379	5987.72
250.755	6049.45
251.131	6177.56
251.507	6137.87
251.884	6284.36
252.26	6343.79
252.636	6425.88
253.012	6468.34
253.388	6576.41
253.764	6598.28
254.14	6674.36
254.516	6690.94
254.892	6769.07
255.268	6831.36
255.643	6916.99
256.019	6946.66
256.395	6986.55
256.771	7109.01
257.147	7128.14
257.522	7159.84
257.898	7219.28
258.274	7220.85
258.649	7303.03
259.025	7404.48
259.4	7370.76
259.776	7529.59
260.151	7504.79
260.527	7533.76
260.902	7610.22
261.278	7645.43
261.653	7716.07
262.028	7710.34
262.404	7714.51
262.779	7842.39
263.154	7925.14
263.53	8004.7
263.905	7955.05
264.28	7977.93
264.655	7990.67
265.03	8060.57
265.405	8093.82
265.781	8155.36
266.156	8141.86
266.531	8210.64
266.906	8204.67
267.281	8339.26
267.655	8276.26
268.03	8328.63
268.405	8287.41
268.78	8315.93
269.155	8382.53
269.53	8329.15
269.904	8442.62
270.279	8503.45
270.654	8534.77
271.029	8544.6
271.403	8557.02
271.778	8581.33
272.152	8623.74
272.527	8615.98
272.901	8706.7
273.276	8687.07
273.65	8822.91
274.025	8811.56
274.399	8737.96
274.774	8865.76
275.148	8849.76
275.522	8926.89
275.897	8979.5
276.271	8953.97
276.645	9049.34
277.019	9113.48
277.393	9128.15
277.768	9154.67
278.142	9068.14
278.516	9171.15
278.89	9277.92
279.264	9234.71
279.638	9340.92
280.012	9367.91
280.386	9300.04
280.76	9431.63
281.133	9398.48
281.507	9440.1
281.881	9574.12
282.255	9544.09
282.629	9656.2
283.002	9652.35
283.376	9700.56
283.75	9636.97
284.123	9696.71
284.497	9792.81
284.87	9855.05
285.244	9885
285.618	9920.84
285.991	9833.03
286.364	9839.43
286.738	9917.51
287.111	10019.85
287.485	10036.73
287.858	10012.43
288.231	10053.35
288.605	10049.77
288.978	10113.42
289.351	10071.5
289.724	10041.84
290.097	10131.31
290.47	10215.62
290.843	10168.87
291.217	10137.96
291.59	10108.06
291.963	10208.98
292.336	10150.22
292.708	10194.93
293.081	10314.16
293.454	10340.19
293.827	10387.39
294.2	10293.49
294.573	10416.98
294.945	10314.16
295.318	10389.94
295.691	10436.1
296.064	10502.9
296.436	10378.46
296.809	10521.76
297.181	10506.98
297.554	10489.13
297.926	10520.74
298.299	10496.02
298.671	10693.17
299.044	10706.15
299.416	10776.64
299.788	10706.15
300.161	10774.35
300.533	10761.37
300.905	10886.5
301.278	10947.5
301.65	11039.97
302.022	10961.22
302.394	11053.43
302.766	11094.06
303.138	11016.86
303.51	11203.95
303.882	11247.33
304.254	11173.5
304.626	11265.08
304.998	11365.22
305.37	11289.68
305.742	11390.56
306.114	11505.06
306.485	11525.07
306.857	11621.25
307.229	11543.04
307.601	11548.11
307.972	11604.55
308.344	11685.26
308.716	11599.74
309.087	11741.15
309.459	11622.26
309.83	11787.93
310.202	11824.83
310.573	11765.43
310.945	11842.27
311.316	11790.2
311.687	11860.97
312.059	11826.35
312.43	11900.38
312.801	11898.87
313.172	11852.88
313.544	11909.22
313.915	11978.68
314.286	11995.09
314.657	12041.29
315.028	11998.37
315.399	11994.59
315.77	12077.64
316.141	12021.85
316.512	12057.19
316.883	12004.69
317.254	12059.21
317.625	11932.72
317.996	12023.37
318.366	12000.39
318.737	12020.34
319.108	12013.02
319.478	11937.26
319.849	11969.84
320.22	11945.34
320.59	11933.47
320.961	11883.46
321.331	11997.87
321.702	11719.41
322.072	11673.12
322.443	11768.97
322.813	11678.94
323.184	11686.78
323.554	11621
323.924	11589.11
324.295	11506.84
324.665	11501.52
325.035	11541.78
325.405	11396.14
325.775	11245.3
326.145	11303.37
326.515	11201.16
326.886	11091.52
327.256	11127.57
327.626	10881.92
327.995	10878.37
328.365	10784.27
328.735	10664.4
329.105	10421.57
329.475	10251.62
329.845	9811.51
330.215	9810.23
330.584	9961.78
330.954	10386.37
331.324	11053.18
331.693	11479.99
332.063	11728
332.432	11883.2
332.802	11564.31
333.171	11103.71
333.541	10590.55
333.91	10482
334.28	10296.81
334.649	10243.71
335.018	10108.57
335.388	10058.72
335.757	9991.71
336.126	9950.27
336.495	9807.41
336.865	9693.64
337.234	9602.08
337.603	9537.42
337.972	9492.75
338.341	9426.49
338.71	9364.31
339.079	9277.67
339.448	9219.79
339.817	9182.99
340.186	9090.3
340.554	8980.53
340.923	9026.92
341.292	8886.91
341.661	8843.05
342.029	8838.14
342.398	8767.15
342.767	8655.54
343.135	8608.23
343.504	8584.18
343.872	8610.04
344.241	8602.54
344.609	8467.73
344.978	8506.56
345.346	8518.21
345.715	8435.89
346.083	8379.42
346.451	8453.24
346.82	8411.28
347.188	8330.7
347.556	8372.94
347.924	8403.77
348.292	8379.16
348.66	8425.53
349.028	8416.46
349.396	8447.28
349.764	8531.66
350.132	8528.3
350.5	8600.73
350.868	8666.91
351.236	8714.46
351.604	8753.72
351.972	8855.43
352.34	8862.66
352.707	8969.44
353.075	9063.77
353.443	9140.51
353.81	9154.16
354.178	9264.29
354.545	9479.14
354.913	9648.51
355.28	9700.56
355.648	9801.01
356.015	9877.07
356.383	10042.87
356.75	10100.13
357.117	10201.31
357.485	10373.87
357.852	10538.32
358.219	10638.68
358.586	10772.82
358.954	10920.31
359.321	11029.81
359.688	11081.62
360.055	11256.71
360.422	11413.88
360.789	11541.52
361.156	11648.33
361.523	11678.68
361.89	11904.93
362.256	12095.81
362.623	12070.07
362.99	12239.33
363.357	12401.89
363.724	12502.63
364.09	12565.31
364.457	12702.43
364.823	12892.97
365.19	12976.12
365.557	13145.83
365.923	13272.51
366.29	13298.09
366.656	13465.78
367.022	13627.82
367.389	13650.6
367.755	13559.21
368.121	13780.49
368.488	13879.79
368.854	13814.76
369.22	13861.28
369.586	13916.79
369.952	13813.01
370.318	13909.04
370.684	14022.53
371.051	14101.49
371.416	14031.28
371.782	14228.12
372.148	14248.6
372.514	14280.55
372.88	14301.52
373.246	14332.47
373.612	14501.88
373.977	14564.97
374.343	14793.52
374.709	14909.83
375.074	14871.98
375.44	14868.74
375.806	14834.87
376.171	14865.01
376.537	15093.04
376.902	15079.36
377.268	15355.94
377.633	15366.63
377.998	15558.23
378.364	15872.58
378.729	15914.76
379.094	15774.53
379.459	15327.6
379.825	15463.32
380.19	15503.08
380.555	15365.64
380.92	15081.6
381.285	15238.82
381.65	15334.56
382.015	15422.81
382.38	15326.6
382.745	15192.31
383.11	15196.04
383.474	15251.26
383.839	15302.24
384.204	15266.68
384.569	15211.22
384.933	15229.37
385.298	15123.15
385.663	15205.99
386.027	15362.65
386.392	15540.59
386.756	15687.39
387.121	15757.41
387.485	15941.31
387.849	16079.73
388.214	15815.99
388.578	15625.3
388.942	15533.39
389.307	15505.06
389.671	15552.77
390.035	15651.88
390.399	15748.96
390.763	15805.81
391.127	16108.5
391.492	16589.98
391.856	16935.26
392.219	17250.8
392.583	17126.94
392.947	16654.36
393.311	16183.13
393.675	16181.64
394.039	16046.99
394.403	16002.09
394.766	15835.35
395.13	15801.1
395.494	15820.71
395.857	15928.66
396.221	16230.48
396.584	16484.97
396.948	16701.4
397.311	17224.11
397.675	17488.53
398.038	17617.72
398.401	17034.7
398.765	16626.13
399.128	16191.81
399.491	15919.97
399.854	15724.38
400.218	15817.73
400.581	15706.51
400.944	15539.35
401.307	15249.52
401.67	15359.67
402.033	15192.31
402.396	15259.72
402.759	15280.11
403.122	15308.21
403.485	15489.66
403.847	15547.55
404.21	15853.72
404.573	15964.39
404.936	16079.73
405.298	15765.1
405.661	15306.22
406.023	15005.44
406.386	14834.12
406.749	14730.73
407.111	14694.35
407.473	15123.4
407.836	15367.38
408.198	15475
408.561	15449.65
408.923	15356.44
409.285	15344.01
409.647	15138.33
410.009	14947.68
410.372	14847.82
410.734	14770.35
411.096	14807.22
411.458	14833.88
411.82	15011.41
412.182	15291.05
412.544	15180.12
412.906	15301.49
413.267	15263.45
413.629	15071.14
413.991	14758.39
414.353	14855.05
414.714	14473.2
415.076	14526.32
415.438	14618.33
415.799	14692.11
416.161	14522.83
416.522	14360.42
416.884	14298.03
417.245	14320.24
417.607	14264.57
417.968	14158.45
418.329	14438.27
418.691	14368.41
419.052	14451.74
419.413	14650.24
419.774	14761.38
420.135	15316.91
420.497	15908.31
420.858	16400.49
421.219	16440.87
421.58	16023.68
421.941	15593.26
422.302	15034.56
422.662	15017.88
423.023	14665.44
423.384	14679.15
423.745	14768.36
424.106	14849.07
424.466	15062.68
424.827	14598.38
425.187	14275.56
425.548	14023.28
425.909	13821.01
426.269	13992.54
426.63	14090.25
426.99	14542.28
427.35	14327.98
427.711	14400.35
428.071	14690.61
428.431	15253
428.792	16394.05
429.152	17437.89
429.512	17412.19
429.872	17277.99
430.232	16793.72
430.592	15862.9
430.952	15001.7
431.312	14335.72
431.672	13871.28
432.032	13938.05
432.392	14305.51
432.752	15724.88
433.111	16625.39
433.471	16269.15
433.831	15019.63
434.19	14890.16
434.55	14962.62
434.91	14606.36
435.269	14976.81
435.629	15094.54
435.988	15131.11
436.348	14862.77
436.707	14407.83
437.066	14327.73
437.426	14554.5
437.785	14693.6
438.144	14809.96
438.503	14580.18
438.862	14377.64
439.222	14214.39
439.581	14039.28
439.94	14369.91
440.299	15368.87
440.658	16202.22
441.017	16399.25
441.376	15982.99
441.734	15722.65
442.093	15588.54
442.452	15783.97
442.811	16096.84
443.169	16026.16
443.528	15586.8
443.887	15332.57
444.245	15311.93
444.604	14974.57
444.962	14781.31
445.321	14750.67
445.679	14963.62
446.038	15118.92
446.396	14759.14
446.754	14338.71
447.112	14236.11
447.471	14079.01
447.829	13887.04
448.187	14006.29
448.545	14105.74
448.903	14021.53
449.261	13915.04
449.619	13756.97
449.977	13704.17
450.335	13375.06
450.693	13300.85
451.051	13344.22
451.409	13205.54
451.766	13157.37
452.124	12838.95
452.482	12536.11
452.839	12369.64
453.197	12237.57
453.555	12219.16
453.912	12141.47
454.27	12520
454.627	12837.19
454.984	12920.36
455.342	12554.23
455.699	12331.09
456.056	12383.5
456.414	12584.18
456.771	12893.73
457.128	13212.32
457.485	13300.6
457.842	13060.24
458.199	13084.84
458.556	13473.54
458.913	13389.35
459.27	13727.19
459.627	13244.68
459.984	13305.61
460.341	13451.75
460.697	13146.08
461.054	12412.97
461.411	11910.74
461.767	11560.51
462.124	11619.23
462.481	11987.77
462.837	12209.58
463.194	12827.39
463.55	12638.03
463.907	13295.33
464.263	13701.41
464.619	14329.48
464.976	14673.91
465.332	14764.87
465.688	14030.03
466.044	12918.85
466.4	12654.89
466.756	12381.99
467.112	12402.9
467.468	12405.92
467.824	12188.39
468.18	11833.42
468.536	11788.68
468.892	11488.35
469.248	11336.33
469.604	11235.91
469.959	11280.55
470.315	11154.47
470.671	11242.25
471.026	11471.89
471.382	11596.7
471.737	11871.83
472.093	12218.91
472.448	12622.43
472.804	12851.26
473.159	13158.63
473.514	13113.96
473.87	13306.62
474.225	14189.17
474.58	14762.13
474.935	14709.8
475.29	14266.82
475.645	14262.08
476	14041.53
476.355	13946.3
476.71	13814.26
477.065	14549.01
477.42	15137.08
477.775	15119.92
478.13	14850.31
478.485	15076.87
478.839	15335.55
479.194	16109.24
479.549	16681.1
479.903	16634.3
480.258	16302.61
480.612	16735.06
480.967	17406.51
481.321	17552.27
481.675	16834.31
482.03	16348.7
482.384	16046.99
482.738	16361.84
483.093	16593.45
483.447	17188.26
483.801	18345.48
484.155	18937.23
484.509	22596.75
484.863	50787.56
485.217	64225.41
485.571	63885.58
485.925	40986.65
486.279	29467.06
486.632	24954.67
486.986	21444.32
487.34	18512.64
487.694	17451.72
488.047	17078.22
488.401	17170.21
488.754	16873.4
489.108	16448.31
489.461	16147.43
489.815	15868.11
490.168	16214.62
490.522	16395.54
490.875	16278.07
491.228	16058.65
491.581	16224.04
491.935	16336.56
492.288	16107.26
492.641	16410.15
492.994	16252.79
493.347	16706.1
493.7	16789.27
494.053	16684.56
494.406	16241.14
494.759	15538.85
495.111	16331.11
495.464	17802.67
495.817	18779.8
496.169	17900.42
496.522	16401.73
496.875	15217.19
497.227	15036.55
497.58	14950.92
497.932	15201.27
498.285	15441.94
498.637	16150.9
498.989	16706.84
499.342	16605.08
499.694	15903.6
500.046	15477.98
500.398	16210.9
500.751	16639.75
501.103	16728.13
501.455	16634.05
501.807	16720.21
502.159	16665.75
502.511	16718.23
502.862	16661.29
503.214	16163.79
503.566	15583.57
503.918	15193.56
504.27	15200.27
504.621	15243.05
504.973	14995.73
505.324	15184.6
505.676	15619.59
506.027	15716.94
506.379	14647.24
506.73	14290.04
507.082	14405.59
507.433	14839.85
507.784	15161.96
508.136	14716.78
508.487	14490.16
508.838	14156.95
509.189	14115.73
509.54	14465.96
509.891	14250.09
510.242	14228.62
510.593	14049.77
510.944	13781.24
511.295	13362.52
511.646	13073.3
511.996	13244.17
512.347	13404.13
512.698	13427.94
513.049	13278.03
513.399	13094.38
513.75	13076.31
514.1	12824.37
514.451	12337.64
514.801	12233.53
515.152	12481.98
515.502	12844.73
515.852	13038.4
516.202	13055.72
516.553	12779.62
516.903	12409.95
517.253	12042.81
517.603	12013.02
517.953	12095.55
518.303	12712.99
518.653	12866.09
519.003	12706.2
519.353	11918.07
519.703	11291.2
520.052	11222.22
520.402	11416.92
520.752	11687.03
521.102	11336.58
521.451	11175.03
521.801	11235.15
522.15	11418.18
522.5	11500
522.849	11557.98
523.199	11904.42
523.548	11930.7
523.897	11818.26
524.246	11613.15
524.596	11183.4
524.945	11276.49
525.294	11347.73
525.643	11266.1
525.992	11340.89
526.341	11456.18
526.69	11401.71
527.039	11125.28
527.388	10931.75
527.737	11548.11
528.086	12395.84
528.434	13007.52
528.783	12498.09
529.132	12039.02
529.48	11608.85
529.829	11452.38
530.177	11320.61
530.526	11137.47
530.874	11464.54
531.223	11347.73
531.571	11329.99
531.919	11424.01
532.268	12016.3
532.616	12966.58
532.964	13408.14
533.312	13395.61
533.66	13267.75
534.008	13370.04
534.356	13432.45
534.704	13250.19
535.052	12815.57
535.4	12295.8
535.748	11677.42
536.095	11113.86
536.443	11027.02
536.791	11489.62
537.139	11976.66
537.486	12662.18
537.834	12726.32
538.181	12891.22
538.529	12803.26
538.876	12855.28
539.223	12464.86
539.571	12073.85
539.918	12026.65
540.265	12397.86
540.613	12870.61
540.96	12726.32
541.307	12579.9
541.654	12585.94
542.001	12540.89
542.348	12526.54
542.695	12543.91
543.042	12822.61
543.388	13203.29
543.735	13207.05
544.082	13247.43
544.429	13244.17
544.775	12692.12
545.122	12075.37
545.469	11549.37
545.815	11558.48
546.162	11710.3
546.508	12294.04
546.854	13117.97
547.201	14220.63
547.547	14545.02
547.893	13978.29
548.24	12695.13
548.586	11465.81
548.932	11174.77
549.278	11031.34
549.624	11298.05
549.97	11087.2
550.316	10623.15
550.662	10321.05
551.008	11297.03
551.353	12822.11
551.699	13604.54
552.045	13019.07
552.391	12267.57
552.736	12133.65
553.082	12068.05
553.427	11804.86
553.773	11097.11
554.118	10841.24
554.464	11423.5
554.809	12366.62
555.154	12841.71
555.5	12910.06
555.845	12044.57
556.19	11355.84
556.535	10899.47
556.88	11151.68
557.225	11187.21
557.57	10898.96
557.915	10316.21
558.26	10030.08
558.605	10092.46
558.95	10343
559.295	11490.88
559.639	12446.97
559.984	13481.56
560.329	13741.95
560.673	13688.65
561.018	13000.99
561.362	12416.75
561.707	11737.11
562.051	11895.84
562.395	12137.94
562.74	12742.66
563.084	12943.72
563.428	13592.77
563.772	13601.03
564.117	13670.63
564.461	13833.77
564.805	13569.23
565.149	13752.71
565.493	13712.93
565.836	14098.99
566.18	14504.12
566.524	16487.45
566.868	17647.36
567.212	18282.59
567.555	18721.9
567.899	20584.18
568.242	22252.12
568.586	25263.62
568.929	28903.8
569.273	32577
569.616	33002.2
569.96	33998.58
570.303	36238.8
570.646	37141.79
570.989	39408.55
571.333	39249.86
571.676	36696.39
572.019	31041.46
572.362	33967.25
572.705	39317.55
573.048	44007.05
573.391	46871.98
573.733	48240.95
574.076	49615.16
574.419	47726.61
574.762	42808.36
575.104	37677.71
575.447	37285.76
575.789	41996.65
576.132	47823.55
576.474	48157.79
576.817	56120.31
577.159	62914.81
577.501	63424.47
577.844	56437.68
578.186	45069.27
578.528	40515.47
578.87	40424.06
579.212	42229.95
579.554	45843.81
579.896	45451.3
580.238	49307.06
580.58	64499.01
580.922	68769.42
581.264	68769.42
581.606	66685.31
581.947	59436.37
582.289	48677.36
582.631	39361.19
582.972	34113.06
583.314	34492.12
583.655	36270.19
583.997	43058.44
584.338	50222.7
584.679	55091.46
585.021	53524.88
585.362	46421.25
585.703	40194.37
586.044	38629.03
586.385	43086.94
586.726	47574.3
587.067	45294.5
587.408	40224.91
587.749	36975.08
