Data from FLMS007011_12-17-39-208.txt Node
Date: Thu Apr 21 12:17:39 MDT 2016
User: lab_user
Spectrometer: FLMS00701
Autoset integration time: false
Trigger mode: 0
Integration Time (sec): 5.000000E-3
Scans to average: 10
Electric dark correction enabled: true
Nonlinearity correction enabled: true
Boxcar width: 0
XAxis mode: Wavelengths
Stop averaging: false
Number of Pixels in Spectrum: 2048
>>>>>Begin Spectral Data<<<<<
178.41	23.71
178.791	23.71
179.172	23.71
179.553	-45.15
179.934	-38.86
180.316	-64.88
180.697	-56.59
181.078	-64.31
181.459	-58.88
181.84	-47.44
182.221	-35.43
182.602	-13.43
182.983	-1.14
183.364	24.28
183.744	41.7
184.125	72.81
184.506	102.77
184.887	113.04
185.268	144.41
185.648	156.38
186.029	172.63
186.41	217.64
186.791	246.69
187.171	244.69
187.552	366.44
187.932	348.82
188.313	368.71
188.694	390.88
189.074	411.04
189.455	418.15
189.835	438.02
190.216	452.5
190.596	467.54
190.977	476.06
191.357	487.69
191.737	497.05
192.118	523.71
192.498	522.01
192.878	520.88
193.258	539.88
193.639	546.4
194.019	520.59
194.399	539.59
194.779	570.77
195.159	565.1
195.54	549.23
195.92	551.5
196.3	551.5
196.68	559.15
197.06	554.62
197.44	587.77
197.82	564.25
198.2	551.78
198.58	574.46
198.959	558.02
199.339	568.22
199.719	575.59
200.099	575.02
200.479	569.35
200.858	584.37
201.238	539.88
201.618	560.57
201.998	545.55
202.377	586.07
202.757	589.47
203.136	569.35
203.516	550.36
203.896	569.92
204.275	565.95
204.655	567.65
205.034	558.87
205.414	559.44
205.793	577.29
206.172	561.99
206.552	586.92
206.931	618.93
207.31	561.42
207.69	605.05
208.069	581.82
208.448	598.82
208.827	606.19
209.207	633.09
209.586	614.68
209.965	612.7
210.344	608.74
210.723	629.13
211.102	646.96
211.481	628.28
211.86	657.15
212.239	640.45
212.618	649.23
212.997	643.28
213.376	681.21
213.755	671.59
214.134	678.66
214.513	691.39
214.891	669.89
215.27	677.25
215.649	676.96
216.028	729.01
216.406	726.46
216.785	740.88
217.164	759.54
217.542	741.17
217.921	770.85
218.3	779.04
218.678	785.54
219.057	777.91
219.435	795.99
219.814	845.13
220.192	853.6
220.57	855.29
220.949	878.72
221.327	896.49
221.705	932.31
222.084	954.58
222.462	968.67
222.84	984.17
223.218	1008.4
223.597	1044.16
223.975	1076.81
224.353	1107.76
224.731	1150.22
225.109	1142.91
225.487	1164.83
225.865	1208.1
226.243	1242.37
226.621	1303.83
226.999	1311.12
227.377	1369.44
227.755	1376.45
228.133	1422.67
228.511	1515.32
228.889	1499.09
229.266	1556.42
229.644	1638.29
230.022	1673.75
230.4	1724.53
230.777	1772.21
231.155	1847.99
231.533	1881.12
231.91	1936.49
232.288	1977.37
232.665	1999.61
233.043	2080.16
233.42	2116.79
233.798	2180.03
234.175	2276.73
234.553	2266.76
234.93	2344.54
235.307	2423.62
235.685	2482.19
236.062	2538.5
236.439	2593.95
236.816	2658.73
237.194	2714.64
237.571	2739.96
237.948	2830.74
238.325	2863.45
238.702	2943.38
239.079	3016.37
239.456	3029.81
239.833	3093.68
240.21	3173.1
240.587	3248.89
240.964	3283.07
241.341	3350.56
241.718	3434.92
242.095	3435.46
242.472	3485.92
242.849	3583.48
243.225	3618.07
243.602	3666.78
243.979	3745.65
244.356	3784.51
244.732	3874.39
245.109	3904.51
245.486	3953.6
245.862	3993.99
246.239	4060.36
246.615	4171.31
246.992	4197.54
247.368	4211.05
247.745	4306.15
248.121	4377.94
248.497	4438.35
248.874	4514.34
249.25	4549.89
249.626	4617.44
250.003	4622.82
250.379	4723.11
250.755	4710.75
251.131	4799.66
251.507	4833.21
251.884	4919.59
252.26	4891.16
252.636	5046.05
253.012	5029.98
253.388	5111.08
253.764	5156.02
254.14	5180.08
254.516	5216.97
254.892	5272.8
255.268	5292.03
255.643	5351.55
256.019	5379.3
256.395	5440.36
256.771	5528.82
257.147	5574.62
257.522	5511.24
257.898	5555.72
258.274	5592.98
258.649	5624.65
259.025	5648.85
259.4	5634.76
259.776	5738.98
260.151	5698.58
260.527	5793.43
260.902	5777.76
261.278	5843.61
261.653	5881.56
262.028	5824.77
262.404	5967.49
262.779	5960.86
263.154	6011.48
263.53	6055.98
263.905	5994.26
264.28	6030.03
264.655	6000.62
265.03	6016.78
265.405	6071.87
265.781	6083.26
266.156	6095.17
266.531	6091.99
266.906	6116.08
267.281	6148.37
267.655	6144.4
268.03	6117.67
268.405	6140.69
268.78	6249.12
269.155	6188.05
269.53	6195.98
269.904	6192.81
270.279	6252.29
270.654	6187.25
271.029	6202.06
271.403	6230.35
271.778	6226.12
272.152	6208.15
272.527	6284.8
272.901	6249.65
273.276	6316.76
273.65	6300.65
274.025	6284.8
274.399	6256.26
274.774	6258.9
275.148	6222.42
275.522	6262.34
275.897	6247.27
276.271	6272.64
276.645	6322.05
277.019	6315.97
277.393	6339.21
277.768	6325.21
278.142	6393.86
278.516	6271.85
278.89	6363.24
279.264	6316.23
279.638	6328.38
280.012	6363.24
280.386	6332.61
280.76	6317.03
281.133	6312.54
281.507	6300.39
281.881	6332.35
282.255	6312.54
282.629	6295.63
283.002	6255.73
283.376	6299.06
283.75	6252.29
284.123	6257.84
284.497	6229.3
284.87	6278.46
285.244	6220.84
285.618	6231.41
285.991	6136.73
286.364	6165.03
286.738	6178.79
287.111	6172.71
287.485	6162.13
287.858	6110.26
288.231	6061.54
288.605	6079.55
288.978	6134.87
289.351	5988.96
289.724	5937.53
290.097	5964.04
290.47	5933.28
290.843	5892.97
291.217	5910.48
291.59	5812.02
291.963	5818.66
292.336	5748.54
292.708	5744.29
293.081	5721.17
293.454	5731
293.827	5666.14
294.2	5575.15
294.573	5566.9
294.945	5522.16
295.318	5573.55
295.691	5464.62
296.064	5476.87
296.436	5412.63
296.809	5418.5
297.181	5388.9
297.554	5342.21
297.926	5253.03
298.299	5249.56
298.671	5272.8
299.044	5237.54
299.416	5205.47
299.788	5153.88
300.161	5109.21
300.533	5068.53
300.905	5121.25
301.278	5082.72
301.65	5084.59
302.022	4975.34
302.394	4982.57
302.766	4993.82
303.138	4914.49
303.51	4859.51
303.882	4804.76
304.254	4811.74
304.626	4759.11
304.998	4776.57
305.37	4703.22
305.742	4694.62
306.114	4676.34
306.485	4647.3
306.857	4577.35
307.229	4515.96
307.601	4553.93
307.972	4539.93
308.344	4582.19
308.716	4508.95
309.087	4554.2
309.459	4510.84
309.83	4595.11
310.202	4529.69
310.573	4635.47
310.945	4698.12
311.316	4699.19
311.687	4822.21
312.059	4829.72
312.43	4897.87
312.801	5020.34
313.172	5100.92
313.544	5148.8
313.915	5288.29
314.286	5354.22
314.657	5430.23
315.028	5491.53
315.399	5525.09
315.77	5554.65
316.141	5558.91
316.512	5581.54
316.883	5611.61
317.254	5567.96
317.625	5569.03
317.996	5607.09
318.366	5587.66
318.737	5645.13
319.108	5645.13
319.478	5728.35
319.849	5816.8
320.22	6002.21
320.59	6049.89
320.961	6248.59
321.331	6535.48
321.702	6721.64
322.072	6912.71
322.443	7217.36
322.813	7455.34
323.184	7652.64
323.554	7858.18
323.924	8065.68
324.295	8303.92
324.665	8466.87
325.035	8723.93
325.405	8834.96
325.775	8969.35
326.145	9158.96
326.515	9227.16
326.886	9361.39
327.256	9442.33
327.626	9437.71
327.995	9423.58
328.365	9339.55
328.735	9223.56
329.105	9100.51
329.475	9278.09
329.845	9377.59
330.215	9858.8
330.584	10208.89
330.954	10695.63
331.324	11011.7
331.693	11154.64
332.063	11165.81
332.432	11067.32
332.802	10830.48
333.171	10568.3
333.541	10217.32
333.91	10101.33
334.28	9962.72
334.649	9948.14
335.018	9889.53
335.388	9828.33
335.757	9650.73
336.126	9505.76
336.495	9489.84
336.865	9400.2
337.234	9226.13
337.603	9166.17
337.972	9112.1
338.341	9075.01
338.71	8884.5
339.079	8863.86
339.448	8826.44
339.817	8737.62
340.186	8561.07
340.554	8497.67
340.923	8424.92
341.292	8282.4
341.661	8247.65
342.029	8144.89
342.398	8047.24
342.767	7858.7
343.135	7928.17
343.504	7694.09
343.872	7708.17
344.241	7675.85
344.609	7571.78
344.978	7444.89
345.346	7457.95
345.715	7360.47
346.083	7318.37
346.451	7240.14
346.82	7098.7
347.188	7166.3
347.556	7102.63
347.924	7081.92
348.292	7027.65
348.66	7040.24
349.028	6978.06
349.396	6997.22
349.764	7140.1
350.132	7139.84
350.5	7140.37
350.868	7213.96
351.236	7283.84
351.604	7344.79
351.972	7426.08
352.34	7431.57
352.707	7580.91
353.075	7615.35
353.443	7673.24
353.81	7754.03
354.178	7813.67
354.545	7900.86
354.913	7989.54
355.28	8079.71
355.648	8226.12
356.015	8307.29
356.383	8465.06
356.75	8419.74
357.117	8594.69
357.485	8604.52
357.852	8638.39
358.219	8819.22
358.586	8898.95
358.954	8993.33
359.321	9012.4
359.688	9112.62
360.055	9155.87
360.422	9229.48
360.789	9327.46
361.156	9396.6
361.523	9426.66
361.89	9523.21
362.256	9629.19
362.623	9704.32
362.99	9728.67
363.357	9833.2
363.724	9869.3
364.09	9910.26
364.457	9954.79
364.823	10175.94
365.19	10179.77
365.557	10342.4
365.923	10364.86
366.29	10366.9
366.656	10537.98
367.022	10582.06
367.389	10633
367.755	10583.08
368.121	10653.37
368.488	10754.16
368.854	10781.13
369.22	10695.37
369.586	10755.18
369.952	10720.32
370.318	10716.75
370.684	10789.02
371.051	10860.99
371.416	10848.53
371.782	10810.38
372.148	10906.24
372.514	10920.99
372.88	11002.3
373.246	11038.11
373.612	11098.29
373.977	11195.49
374.343	11302.78
374.709	11490.29
375.074	11376.04
375.44	11332.95
375.806	11377.3
376.171	11378.57
376.537	11494.6
376.902	11477.88
377.268	11684.67
377.633	11732.98
377.998	11909.14
378.364	12037.17
378.729	12085.88
379.094	12088.91
379.459	11762.81
379.825	11770.9
380.19	11815.39
380.555	11716.03
380.92	11580.93
381.285	11541.95
381.65	11645.96
382.015	11718.56
382.38	11714.01
382.745	11602.95
383.11	11579.16
383.474	11610.29
383.839	11625.72
384.204	11631.8
384.569	11599.91
384.933	11600.16
385.298	11492.82
385.663	11590.29
386.027	11617.37
386.392	11734.24
386.756	11861.64
387.121	12009.9
387.485	12127.51
387.849	12253.87
388.214	12149.46
388.578	12031.36
388.942	11855.07
389.307	11920.76
389.671	11834.35
390.035	11884.64
390.399	11957.89
390.763	12070.49
391.127	12263.45
391.492	12591.65
391.856	12893.39
392.219	13214.74
392.583	13271.18
392.947	12920.78
393.311	12509.84
393.675	12408.86
394.039	12334.28
394.403	12366.53
394.766	12180.24
395.13	12221.6
395.494	12139.88
395.857	12288.41
396.221	12477.61
396.584	12679.46
396.948	12887.36
397.311	13290.99
397.675	13608.71
398.038	13668.54
398.401	13389.51
398.765	12981.06
399.128	12691.03
399.491	12419.94
399.854	12387.19
400.218	12286.14
400.581	12252.36
400.944	12272.02
401.307	12009.15
401.67	12051.05
402.033	12006.62
402.396	12017.73
402.759	12106.07
403.122	12195.87
403.485	12220.59
403.847	12365.27
404.21	12584.1
404.573	12640.46
404.936	12840.62
405.298	12676.94
405.661	12403.06
406.023	12060.64
406.386	11967.23
406.749	11853.56
407.111	11864.42
407.473	12017.23
407.836	12358.22
408.198	12504.56
408.561	12464.52
408.923	12428.25
409.285	12532.25
409.647	12303.53
410.009	12220.84
410.372	12115.91
410.734	12018.99
411.096	12009.4
411.458	12135.08
411.82	12235.47
412.182	12407.6
412.544	12419.69
412.906	12557.17
413.267	12590.89
413.629	12400.04
413.991	12230.17
414.353	12197.64
414.714	12045.25
415.076	11974.3
415.438	12052.31
415.799	12200.16
416.161	11992.74
416.522	11954.86
416.884	11860.88
417.245	11792.65
417.607	11846.48
417.968	11756.49
418.329	11870.99
418.691	11980.62
419.052	12022.02
419.413	12156.78
419.774	12258.66
420.135	12750.38
420.497	13169.33
420.858	13584.42
421.219	13753.88
421.58	13618.72
421.941	13166.07
422.302	12724.22
422.662	12643.23
423.023	12349.9
423.384	12359.48
423.745	12476.35
424.106	12369.3
424.466	12565.98
424.827	12429.51
425.187	12073.51
425.548	11759.02
425.909	11600.67
426.269	11742.08
426.63	11861.14
426.99	12164.09
427.35	12042.72
427.711	12080.08
428.071	12239.25
428.431	12626.12
428.792	13543.35
429.152	14487.08
429.512	14748.84
429.872	14574.86
430.232	14349.86
430.592	13652.02
430.952	12809.96
431.312	12262.44
431.672	11774.7
432.032	11700.35
432.392	11976.58
432.752	12855.7
433.111	13749.63
433.471	13893.21
433.831	13042.84
434.19	12584.1
434.55	12630.4
434.91	12388.2
435.269	12608.26
435.629	12672.92
435.988	12760.68
436.348	12692.03
436.707	12216.05
437.066	12095.72
437.426	12244.04
437.785	12398.78
438.144	12488.94
438.503	12320.67
438.862	12209.49
439.222	12032.62
439.581	11884.13
439.94	12010.16
440.299	12707.12
440.658	13538.34
441.017	13812.42
441.376	13736.62
441.734	13375.48
442.093	13111.62
442.452	13244.09
442.811	13471.21
443.169	13597.19
443.528	13196.93
443.887	13020.99
444.245	12918.27
444.604	12687.76
444.962	12486.93
445.321	12509.84
445.679	12520.42
446.038	12772.25
446.396	12528.22
446.754	12174.69
447.112	12095.72
447.471	11822.98
447.829	11697.57
448.187	11761.04
448.545	11869.22
448.903	11852.04
449.261	11833.09
449.619	11605.98
449.977	11549.54
450.335	11324.84
450.693	11226.95
451.051	11198.28
451.409	11116.82
451.766	11105.4
452.124	10898.11
452.482	10637.07
452.839	10454.89
453.197	10310.51
453.555	10216.3
453.912	10196.12
454.27	10471.46
454.627	10732.53
454.984	10812.93
455.342	10566.01
455.699	10323.52
456.056	10316.38
456.414	10485.73
456.771	10812.67
457.128	10960.12
457.485	11109.97
457.842	11042.68
458.199	11018.3
458.556	11240.65
458.913	11184.33
459.27	11428.23
459.627	11220.61
459.984	11210.72
460.341	11148.55
460.697	11054.62
461.054	10612.62
461.411	10119.47
461.767	9693.04
462.124	9668.17
462.481	9954.53
462.837	10206.85
463.194	10717.01
463.55	10557.6
463.907	11058.17
464.263	11367.67
464.619	11797.7
464.976	12160.31
465.332	12293.95
465.688	11957.13
466.044	11139.92
466.4	10638.09
466.756	10315.1
467.112	10376.85
467.468	10285.75
467.824	10258.94
468.18	10024.62
468.536	9823.21
468.892	9585.58
469.248	9471.09
469.604	9378.1
469.959	9374.76
470.315	9343.66
470.671	9378.87
471.026	9424.6
471.382	9606.87
471.737	9859.83
472.093	10142.47
472.448	10455.65
472.804	10642.67
473.159	10861.5
473.514	10969.78
473.87	11031.76
474.225	11521.18
474.58	12167.63
474.935	12269.5
475.29	11935.16
475.645	11783.54
476	11631.54
476.355	11558.65
476.71	11386.93
477.065	11861.39
477.42	12308.32
477.775	12474.09
478.13	12379.63
478.485	12427.75
478.839	12498.01
479.194	13202.95
479.549	13708.59
479.903	13900.46
480.258	13498.26
480.612	13688.32
480.967	14227.04
481.321	14594.06
481.675	14194.83
482.03	13608.71
482.384	13258.39
482.738	13385.25
483.093	13643.01
483.447	14054.69
483.801	14845.25
484.155	15468.95
484.509	17401.98
484.863	35950.56
485.217	50479.49
485.571	55591.35
485.925	40584.95
486.279	27102.86
486.632	20647.26
486.986	17615.42
487.34	15618.76
487.694	14547.19
488.047	13941.46
488.401	14090.17
488.754	13909.71
489.108	13711.59
489.461	13362.19
489.815	13106.6
490.168	13179.12
490.522	13422.34
490.875	13437.13
491.228	13380.49
491.581	13290.99
491.935	13381.74
492.288	13142.99
492.641	13372.47
492.994	13359.43
493.347	13580.41
493.7	13723.1
494.053	13692.82
494.406	13479.72
494.759	12828.31
495.111	13143.99
495.464	14208.06
495.817	15118.34
496.169	14895.31
496.522	13842.69
496.875	12675.43
497.227	12274.04
497.58	12159.3
497.932	12473.08
498.285	12545.34
498.637	13090.78
498.989	13558.88
499.342	13616.22
499.694	13200.44
500.046	12672.92
500.398	13086.01
500.751	13449.66
501.103	13619.98
501.455	13638.75
501.807	13543.35
502.159	13611.21
502.511	13562.63
502.862	13507.53
503.214	13241.83
503.566	12812.47
503.918	12401.55
504.27	12337.81
504.621	12401.3
504.973	12227.4
505.324	12239.75
505.676	12599.7
506.027	12763.45
506.379	12200.16
506.73	11582.19
507.082	11568.53
507.433	11972.79
507.784	12286.39
508.136	12066.7
508.487	11798.71
508.838	11506.75
509.189	11400.11
509.54	11628.76
509.891	11566.75
510.242	11560.43
510.593	11392.51
510.944	11260.43
511.295	10975.11
511.646	10606.51
511.996	10600.14
512.347	10853.11
512.698	10964.7
513.049	10774.52
513.399	10652.1
513.75	10579.51
514.1	10444.94
514.451	10037.15
514.801	9879.8
515.152	10044.57
515.502	10329.39
515.852	10575.94
516.202	10511.73
516.553	10454.38
516.903	10060.68
517.253	9791.45
517.603	9696.37
517.953	9743.53
518.303	10142.22
518.653	10441.88
519.003	10299.79
519.353	9796.06
519.703	9264.72
520.052	9036.63
520.402	9145.32
520.752	9377.07
521.102	9271.92
521.451	9092.27
521.801	9060.85
522.15	9141.71
522.5	9333.63
522.849	9321.81
523.199	9512.43
523.548	9754.04
523.897	9632.01
524.246	9383.5
524.596	9068.32
524.945	9099.23
525.294	9083.77
525.643	9118.8
525.992	9240.8
526.341	9229.73
526.69	9207.86
527.039	9086.86
527.388	8847.61
527.737	9126.78
528.086	9972.7
528.434	10550.47
528.783	10292.64
529.132	9719.7
529.48	9443.36
529.829	9270.38
530.177	9152.01
530.526	9026.32
530.874	9109.27
531.223	9176.21
531.571	9155.62
531.919	9129.87
532.268	9510.12
532.616	10285.75
532.964	10740.93
533.312	10860.23
533.66	10724.9
534.008	10718.03
534.356	10741.19
534.704	10647.51
535.052	10383.73
535.4	9978.58
535.748	9477.77
536.095	8941.77
536.443	8895.86
536.791	9099.48
537.139	9580.7
537.486	10071.93
537.834	10345.21
538.181	10404.65
538.529	10353.89
538.876	10297.74
539.223	10181.31
539.571	9683.29
539.918	9566.07
540.265	9811.17
540.613	10363.84
540.96	10265.83
541.307	10179.52
541.654	10072.44
542.001	10087.78
542.348	10018.74
542.695	10042.78
543.042	10292.89
543.388	10436.27
543.735	10690.03
544.082	10608.55
544.429	10601.93
544.775	10256.9
545.122	9693.55
545.469	9225.1
545.815	9167.2
546.162	9358.82
546.508	9728.41
546.854	10387.82
547.201	11267.02
547.547	11676.58
547.893	11345.88
548.24	10380.67
548.586	9315.12
548.932	8966.52
549.278	8728.84
549.624	8983.28
549.97	8902.82
550.316	8627.79
550.662	8303.4
551.008	8838.32
551.353	10101.84
551.699	10919.21
552.045	10590.46
552.391	9822.44
552.736	9657.91
553.082	9583.01
553.427	9497.8
553.773	8902.05
554.118	8611.76
554.464	9000.55
554.809	9699.7
555.154	10356.18
555.5	10328.88
555.845	9772.23
556.19	9070.89
556.535	8609.43
556.88	8710.49
557.225	8932.74
557.57	8725.74
557.915	8301.32
558.26	7971.86
558.605	7929.73
558.95	8230.27
559.295	9034.82
559.639	9994.96
559.984	10769.68
560.329	10996.71
560.673	10990.61
561.018	10415.11
561.362	9812.19
561.707	9307.67
562.051	9371.42
562.395	9478.54
562.74	10105.93
563.084	10315.1
563.428	10889.98
563.772	10875.48
564.117	10887.94
564.461	10993.66
564.805	10783.93
565.149	10910.06
565.493	10895.57
565.836	11250.03
566.18	11501.94
566.524	12898.42
566.868	14002.21
567.212	14676.07
567.555	14757.31
567.899	16057.08
568.242	17622.09
568.586	19859.23
568.929	22533.59
569.273	25814.01
569.616	26445.1
569.96	26852.65
570.303	28431.33
570.646	29440.91
570.989	31108.1
571.333	31045.07
571.676	29180.77
572.019	24632.16
572.362	25798.3
572.705	30314.61
573.048	34844.78
573.391	37199.1
573.733	38455.05
574.076	39450.38
574.419	38112.07
574.762	33825.06
575.104	29736.51
575.447	28367.68
575.789	32210.48
576.132	37796.43
576.474	38344.84
576.817	44509.63
577.159	50655.71
577.501	52639
577.844	46199.92
578.186	35499.19
578.528	30809.99
578.87	30862.91
579.212	32633.11
579.554	36244.15
579.896	35807.25
580.238	38414.19
580.58	51156.28
580.922	59293.76
581.264	63383.63
581.606	54880.36
581.947	47578.58
582.289	37863.26
582.631	30011.27
582.972	25699.89
583.314	26141.69
583.655	27995.93
583.997	33319.2
584.338	39870.62
584.679	44141.44
585.021	43360.94
585.362	36948.04
585.703	31373.51
586.044	29174.38
586.385	33083.48
586.726	37277.52
587.067	36333.14
587.408	31545.64
587.749	28438.7
588.09	26079.34
588.431	23659.51
588.772	21123.2
589.113	21712.9
589.453	22324.46
589.794	21469.78
590.134	19288.56
590.475	17886.27
590.815	17992.89
591.156	18414.69
591.496	18758.78
591.837	25073.85
592.177	31484.57
