Data from FLMS007011_11-17-35-705.txt Node
Date: Thu Apr 21 11:17:35 MDT 2016
User: lab_user
Spectrometer: FLMS00701
Autoset integration time: false
Trigger mode: 0
Integration Time (sec): 5.000000E-3
Scans to average: 10
Electric dark correction enabled: true
Nonlinearity correction enabled: true
Boxcar width: 0
XAxis mode: Wavelengths
Stop averaging: false
Number of Pixels in Spectrum: 2048
>>>>>Begin Spectral Data<<<<<
178.41	35.19
178.791	35.19
179.172	35.19
179.553	-45.38
179.934	-60.53
180.316	-43.37
180.697	-53.1
181.078	-82.26
181.459	-40.23
181.84	-44.23
182.221	-28.8
182.602	-17.37
182.983	-14.51
183.364	57.75
183.744	28.34
184.125	50.04
184.506	78.3
184.887	109.4
185.268	107.12
185.648	136.78
186.029	170.13
186.41	197.48
186.791	209.16
187.171	250.74
187.552	354.56
187.932	356.55
188.313	388.38
188.694	405.14
189.074	422.75
189.455	440.07
189.835	446.6
190.216	480.66
190.596	472.15
190.977	518.96
191.357	510.45
191.737	502.22
192.118	508.18
192.498	516.12
192.878	537.1
193.258	572.25
193.639	530.87
194.019	553.83
194.399	542.49
194.779	547.59
195.159	585.29
195.54	565.73
195.92	581.89
196.3	597.18
196.68	584.15
197.06	603.98
197.44	587.84
197.82	605.68
198.2	598.88
198.58	590.95
198.959	585.57
199.339	583.3
199.719	577.64
200.099	575.65
200.479	593.79
200.858	590.95
201.238	587.84
201.618	592.09
201.998	622.68
202.377	612.2
202.757	583.87
203.136	625.79
203.516	589.54
203.896	608.51
204.275	608.23
204.655	613.61
205.034	624.09
205.414	638.53
205.793	639.38
206.172	639.1
206.552	642.5
206.931	652.4
207.31	659.2
207.69	654.67
208.069	665.42
208.448	708.43
208.827	696.55
209.207	681.84
209.586	673.91
209.965	701.36
210.344	696.83
210.723	752.25
211.102	724.27
211.481	728.22
211.86	736.42
212.239	771.19
212.618	777.69
212.997	790.97
213.376	807.35
213.755	844.06
214.134	815.83
214.513	859.87
214.891	874.83
215.27	871.44
215.649	878.5
216.028	886.4
216.406	915.45
216.785	958.31
217.164	952.11
217.542	950.98
217.921	971.27
218.3	1001.42
218.678	1059.42
219.057	1050.42
219.435	1067.87
219.814	1085.88
220.192	1116.54
220.57	1113.16
220.949	1145.5
221.327	1147.19
221.705	1203.11
222.084	1220.24
222.462	1261.52
222.84	1275.55
223.218	1312.86
223.597	1352.12
223.975	1412.93
224.353	1438.98
224.731	1510.34
225.109	1478.17
225.487	1515.66
225.865	1586.39
226.243	1591.42
226.621	1692.79
226.999	1718.45
227.377	1745.23
227.755	1792.9
228.133	1844.71
228.511	1880.63
228.889	1947.96
229.266	1964.37
229.644	2048.56
230.022	2078.28
230.4	2083.83
230.777	2136.28
231.155	2197
231.533	2271.25
231.91	2298.66
232.288	2404.61
232.665	2411.24
233.043	2483.35
233.42	2525.87
233.798	2579.12
234.175	2606.14
234.553	2669.26
234.93	2720.21
235.307	2760.12
235.685	2803.03
236.062	2876.15
236.439	2905.82
236.816	2978.02
237.194	3036.45
237.571	3086.07
237.948	3112.92
238.325	3223.24
238.702	3254.15
239.079	3290.78
239.456	3356.9
239.833	3419.7
240.21	3454.07
240.587	3497.71
240.964	3603.97
241.341	3599.61
241.718	3728.85
242.095	3723.14
242.472	3784.29
242.849	3787.28
243.225	3894.8
243.602	3942.81
243.979	3958.27
244.356	4021.41
244.732	4043.9
245.109	4147.02
245.486	4212.73
245.862	4255.16
246.239	4285.68
246.615	4356.41
246.992	4423.85
247.368	4438.41
247.745	4474.8
248.121	4595.17
248.497	4588.17
248.874	4686.62
249.25	4685.54
249.626	4740.37
250.003	4815.29
250.379	4862.79
250.755	4889.34
251.131	5006.74
251.507	4994.15
251.884	5069.13
252.26	5159.55
252.636	5161.43
253.012	5237.33
253.388	5376.69
253.764	5345.2
254.14	5345.2
254.516	5385.76
254.892	5443.09
255.268	5524.35
255.643	5519.83
256.019	5545.66
256.395	5574.14
256.771	5649.18
257.147	5719.64
257.522	5696.51
257.898	5722.03
258.274	5733.46
258.649	5775.17
259.025	5826.95
259.4	5841.55
259.776	5931.75
260.151	5977.62
260.527	5968.61
260.902	5998.29
261.278	6056.57
261.653	6071.4
262.028	6058.43
262.404	6082.79
262.779	6101.85
263.154	6125.93
263.53	6196.57
263.905	6182.55
264.28	6211.11
264.655	6228.03
265.03	6157.42
265.405	6328.71
265.781	6266.36
266.156	6294.37
266.531	6384.15
266.906	6330.29
267.281	6352.21
267.655	6301.5
268.03	6344.02
268.405	6372.54
268.78	6354.85
269.155	6378.61
269.53	6359.34
269.904	6429.54
270.279	6387.05
270.654	6409.75
271.029	6407.64
271.403	6503.65
271.778	6453.28
272.152	6431.39
272.527	6453.81
272.901	6503.12
273.276	6478.86
273.65	6509.98
274.025	6527.9
274.399	6463.3
274.774	6484.93
275.148	6545.03
275.522	6532.64
275.897	6508.92
276.271	6559.79
276.645	6572.17
277.019	6594.03
277.393	6589.56
277.768	6574.54
278.142	6593.77
278.516	6595.61
278.89	6601.14
279.264	6586.92
279.638	6579.81
280.012	6611.68
280.386	6499.69
280.76	6575.33
281.133	6546.35
281.507	6628.79
281.881	6639.06
282.255	6599.83
282.629	6541.6
283.002	6518.41
283.376	6518.94
283.75	6518.94
284.123	6597.46
284.497	6498.11
284.87	6567.16
285.244	6530.01
285.618	6476.23
285.991	6464.1
286.364	6483.08
286.738	6404.47
287.111	6463.04
287.485	6423.21
287.858	6404.74
288.231	6361.45
288.605	6327.39
288.978	6378.61
289.351	6284.86
289.724	6276.93
290.097	6256.85
290.47	6228.03
290.843	6212.17
291.217	6180.17
291.59	6097.88
291.963	6093.38
292.336	6053.13
292.708	6000.94
293.081	6000.94
293.454	6043.59
293.827	5937.32
294.2	5835.97
294.573	5853.76
294.945	5835.18
295.318	5776.23
295.691	5783.4
296.064	5713.26
296.436	5626.57
296.809	5698.37
297.181	5643.59
297.554	5561.37
297.926	5560.03
298.299	5526.48
298.671	5527.55
299.044	5467.34
299.416	5502.24
299.788	5435.09
300.161	5377.75
300.533	5388.16
300.905	5374.29
301.278	5352.14
301.65	5315.58
302.022	5300.09
302.394	5233.32
302.766	5281.94
303.138	5227.71
303.51	5215.96
303.882	5259.77
304.254	5181.74
304.626	5270.99
304.998	5232.79
305.37	5078.76
305.742	5138.96
306.114	5156.34
306.485	5133.88
306.857	5123.45
307.229	5091.07
307.601	4981.56
307.972	5013.7
308.344	4944.31
308.716	4845.08
309.087	4829.51
309.459	4766.15
309.83	4673.17
310.202	4613.47
310.573	4544.83
310.945	4555.33
311.316	4402.55
311.687	4434.37
312.059	4308.64
312.43	4274.88
312.801	4230.03
313.172	4295.68
313.544	4260.56
313.915	4325.11
314.286	4402.28
314.657	4444.88
315.028	4546.18
315.399	4704.9
315.77	4912.94
316.141	5070.73
316.512	5270.72
316.883	5505.18
317.254	5747.27
317.625	5999.62
317.996	6305.46
318.366	6639.33
318.737	6843.68
319.108	7264.54
319.478	7553.83
319.849	7808
320.22	8139.49
320.59	8388.98
320.961	8583.63
321.331	8908.81
321.702	8954.46
322.072	9223.62
322.443	9395.63
322.813	9605.64
323.184	9664.89
323.554	9764.35
323.924	9832.23
324.295	9785.87
324.665	9836.58
325.035	9879.6
325.405	9740
325.775	9699.25
326.145	9570.75
326.515	9500.42
326.886	9344.74
327.256	9268.89
327.626	9293.32
327.995	9271.72
328.365	9431.08
328.735	9416.95
329.105	9319.04
329.475	9297.95
329.845	9316.72
330.215	9592.3
330.584	9996.04
330.954	10624.14
331.324	11426.77
331.693	12118.74
332.063	12570.56
332.432	12946.21
332.802	12898.47
333.171	12727.3
333.541	12232.75
333.91	12186.09
334.28	12106.12
334.649	12077.1
335.018	11977.39
335.388	11996.58
335.757	12049.85
336.126	11926.12
336.495	11946.07
336.865	11875.85
337.234	11677.9
337.603	11714.32
337.972	11621.22
338.341	11667.78
338.71	11484.52
339.079	11449.06
339.448	11363.67
339.817	11314.75
340.186	11293.96
340.554	11089.97
340.923	11005.91
341.292	10895.12
341.661	10889.52
342.029	10789.07
342.398	10632.29
342.767	10496.5
343.135	10460.3
343.504	10333.02
343.872	10314.13
344.241	10224.02
344.609	10029.03
344.978	10003.2
345.346	9863.21
345.715	9686.17
346.083	9617.96
346.451	9460.11
346.82	9398.97
347.188	9414.9
347.556	9248.06
347.924	9132.5
348.292	9022.25
348.66	8929.19
349.028	8789.84
349.396	8707.19
349.764	8697.89
350.132	8609.49
350.5	8541.21
350.868	8438.96
351.236	8370.84
351.604	8238.89
351.972	8255.74
352.34	8144.95
352.707	8094.05
353.075	8156.11
353.443	8020.01
353.81	7950.34
354.178	7954.24
354.545	8000.51
354.913	7953.46
355.28	7993.5
355.648	7944.09
356.015	7938.11
356.383	7975.04
356.75	7971.92
357.117	7970.1
357.485	7961.26
357.852	8004.67
358.219	8056.13
358.586	8048.85
358.954	8022.09
359.321	8108.6
359.688	8121.32
360.055	8152.99
360.422	8247.96
360.789	8168.83
361.156	8215.02
361.523	8206.46
361.89	8247.44
362.256	8328.34
362.623	8316.94
362.99	8362.29
363.357	8339.75
363.724	8496.18
364.09	8575.35
364.457	8559.32
364.823	8775.38
365.19	8773.32
365.557	8917.32
365.923	8978.95
366.29	9063.22
366.656	9217.18
367.022	9301.04
367.389	9309.01
367.755	9317.49
368.121	9428.77
368.488	9561.51
368.854	9626.68
369.22	9685.15
369.586	9750
369.952	9808.15
370.318	9777.41
370.684	9861.68
371.051	9968.92
371.416	10052.04
371.782	10157.35
372.148	10153.51
372.514	10177.79
372.88	10343.74
373.246	10285.55
373.612	10505.93
373.977	10557.66
374.343	10736.66
374.709	10895.88
375.074	10817.31
375.44	10850.88
375.806	10896.9
376.171	11012.01
376.537	11174.49
376.902	11209.25
377.268	11351.51
377.633	11455.9
377.998	11606.04
378.364	11931.68
378.729	11868.02
379.094	11900.86
379.459	11605.79
379.825	11678.91
380.19	11696.11
380.555	11563.52
380.92	11558.46
381.285	11611.86
381.65	11731.01
382.015	11819.75
382.38	11817.47
382.745	11704.2
383.11	11726.46
383.474	11807.11
383.839	11865.99
384.204	11813.43
384.569	11868.52
384.933	11892.78
385.298	11849.32
385.663	11917.53
386.027	12079.12
386.392	12252.92
386.756	12343.15
387.121	12478.43
387.485	12614.1
387.849	12789.9
388.214	12638
388.578	12500.83
388.942	12398.33
389.307	12465.58
389.671	12517.7
390.035	12637.75
390.399	12695.11
390.763	12778.34
391.127	13125.22
391.492	13516.85
391.856	13787.96
392.219	14121.45
392.583	14132.19
392.947	13584.73
393.311	13328.65
393.675	13326.65
394.039	13219.31
394.403	13264.21
394.766	13172.4
395.13	13161.61
395.494	13287.53
395.857	13357.98
396.221	13570.2
396.584	13939.02
396.948	14109.46
397.311	14706.53
397.675	14937.2
398.038	15016.86
398.401	14580.65
398.765	14279.78
399.128	14012.01
399.491	13825.99
399.854	13776.96
400.218	13845.25
400.581	13677.86
400.944	13615.77
401.307	13377.29
401.67	13526.87
402.033	13537.64
402.396	13575.96
402.759	13634.55
403.122	13782.46
403.485	13883.26
403.847	14145.43
404.21	14284.27
404.573	14418.04
404.936	14573.42
405.298	14344.92
405.661	14146.18
406.023	13786.21
406.386	13694.13
406.749	13563.44
407.111	13582.47
407.473	14016.01
407.836	14228.84
408.198	14453.21
408.561	14425.52
408.923	14451.97
409.285	14422.28
409.647	14227.59
410.009	14049.99
410.372	14179.65
410.734	13999.51
411.096	14113.46
411.458	14142.43
411.82	14401.32
412.182	14657.93
412.544	14652.2
412.906	14695.57
413.267	14758.36
413.629	14476.16
413.991	14297.25
414.353	14407.06
414.714	14176.9
415.076	14225.35
415.438	14362.89
415.799	14376.37
416.161	14165.91
416.522	14181.4
416.884	14154.42
417.245	14043
417.607	14080.23
417.968	14079.98
418.329	14235.83
418.691	14310.98
419.052	14310.73
419.413	14599.85
419.774	14802.21
420.135	15426.51
420.497	16013.73
420.858	16482.96
421.219	16542.16
421.58	16127.07
421.941	15641.42
422.302	15254.22
422.662	15153.73
423.023	14907.07
423.384	14823.14
423.745	15038.76
424.106	15142.53
424.466	15232.83
424.827	14882.91
425.187	14575.67
425.548	14297
425.909	14033
426.269	14326.2
426.63	14499.36
426.99	14775.56
427.35	14738.43
427.711	14792.99
428.071	15189.3
428.431	15704.74
428.792	16878.82
429.152	17918.17
429.512	18082.51
429.872	17878.67
430.232	17390.42
430.592	16510.95
430.952	15519.7
431.312	14885.65
431.672	14430.01
432.032	14430.51
432.392	14813.92
432.752	16421.03
433.111	17252.01
433.471	16933.99
433.831	15602.67
434.19	15553.24
434.55	15600.68
434.91	15248.99
435.269	15584.29
435.629	15791.64
435.988	15906.3
436.348	15567.4
436.707	15042.25
437.066	14967.57
437.426	15334.78
437.785	15445.4
438.144	15509.76
438.503	15309.67
438.862	15123.62
439.222	14929.48
439.581	14792.75
439.94	15105.96
440.299	16085.41
440.658	17054.21
441.017	17188.73
441.376	16910.74
441.734	16580.79
442.093	16301.59
442.452	16660.02
442.811	16962.44
443.169	16861.5
443.528	16437.63
443.887	16205.42
444.245	16295.15
444.604	15787.42
444.962	15666.75
445.321	15551.75
445.679	15828.62
446.038	16079.95
446.396	15585.28
446.754	15166.91
447.112	15049.22
447.471	14935.2
447.829	14785.77
448.187	14854.77
448.545	15046.73
448.903	14859
449.261	14792.5
449.619	14538.01
449.977	14485.39
450.335	14158.67
450.693	14089.47
451.051	14120.2
451.409	14107.46
451.766	13988.26
452.124	13659.59
452.482	13314.11
452.839	13163.37
453.197	13011.5
453.555	12933.65
453.912	12878.62
454.27	13375.03
454.627	13712.15
454.984	13676.61
455.342	13454.47
455.699	13023.81
456.056	13153.33
456.414	13508.59
456.771	13848
457.128	14004.01
457.485	14106.46
457.842	14014.76
458.199	14055.74
458.556	14308.48
458.913	14205.62
459.27	14533.53
459.627	14081.73
459.984	14200.38
460.341	14350.16
460.697	13910.52
461.054	13344.95
461.411	12668.69
461.767	12355.5
462.124	12359.28
462.481	12733.33
462.837	13118.45
463.194	13740.17
463.55	13545.16
463.907	14248.32
464.263	14653.45
464.619	15296.49
464.976	15705.98
465.332	15788.66
465.688	14960.6
466.044	13847.25
466.4	13478.28
466.756	13175.66
467.112	13317.62
467.468	13283.02
467.824	13101.13
468.18	12789.15
468.536	12591.96
468.892	12324.51
469.248	12217.37
469.604	12069.53
469.959	11967.54
470.315	12007.69
470.671	12076.09
471.026	12243.59
471.382	12468.1
471.737	12725.03
472.093	13040.38
472.448	13643.06
472.804	13872.26
473.159	14116.45
473.514	14090.97
473.87	14437.5
474.225	15170.15
474.58	15909.03
474.935	15743.72
475.29	15378.04
475.645	15254.71
476	15125.36
476.355	15042.75
476.71	14845.31
477.065	15619.06
477.42	16351.4
477.775	16208.14
478.13	15932.85
478.485	16020.92
478.839	16462.15
479.194	17413.15
479.549	17895.21
479.903	17998.62
480.258	17413.15
480.612	17998.62
480.967	18815.25
481.321	18918.73
481.675	18076.1
482.03	17430.2
482.384	17360.52
482.738	17570.52
483.093	17796.47
483.447	18593.22
483.801	19677.73
484.155	20393.4
484.509	24673.68
484.863	54887.78
485.217	68511.18
485.571	68060.18
485.925	44001.5
486.279	31894.71
486.632	26939.13
486.986	22886.33
487.34	19941.94
487.694	18772.38
488.047	18337.31
488.401	18475.64
488.754	18112.86
489.108	17593.24
489.461	17369.16
489.815	17067.07
490.168	17493.2
490.522	17564.35
490.875	17558.66
491.228	17267.09
491.581	17616.46
491.935	17518.89
492.288	17287.36
492.641	17574.72
492.994	17464.05
493.347	17993.44
493.7	18021.07
494.053	17854.48
494.406	17354.34
494.759	16773.89
495.111	17678.69
495.464	19233.71
495.817	20070.57
496.169	19198.5
496.522	17566.57
496.875	16360.82
497.227	16169.47
497.58	16107.73
497.932	16429.7
498.285	16686.02
498.637	17409.94
498.989	18016.39
499.342	17874.23
499.694	17073.75
500.046	16627.09
500.398	17393.13
500.751	17900.15
501.103	17969.5
501.455	17969.25
501.807	17946.3
502.159	17881.39
502.511	17936.43
502.862	17895.7
503.214	17428.47
503.566	16671.16
503.918	16276.31
504.27	16377.67
504.621	16412.6
504.973	16101.77
505.324	16327.12
505.676	16852.34
506.027	16909.5
506.379	15760.61
506.73	15199.75
507.082	15465.03
507.433	15997.6
507.784	16366.27
508.136	15944.01
508.487	15542.55
508.838	15119.39
509.189	15365.11
509.54	15617.57
509.891	15352.18
510.242	15315.89
510.593	15083.56
510.944	14915.04
511.295	14440.24
511.646	14124.45
511.996	14275.53
512.347	14495.37
512.698	14500.36
513.049	14282.27
513.399	14038
513.75	14106.71
514.1	13817.48
514.451	13174.16
514.801	13224.83
515.152	13490.3
515.502	13864.25
515.852	14068.74
516.202	14118.2
516.553	13853.5
516.903	13417.14
517.253	12982.37
517.603	12865.31
517.953	13068.25
518.303	13659.34
518.653	13942.77
519.003	13712.9
519.353	12873.6
519.703	12265.02
520.052	12076.35
520.402	12310.64
520.752	12565.28
521.102	12350.97
521.451	11989.51
521.801	12078.11
522.15	12343.91
522.5	12508.39
522.849	12470.62
523.199	12828.87
523.548	12937.92
523.897	12805.49
524.246	12400.1
524.596	11993.8
524.945	12169.7
525.294	12169.95
525.643	12204
525.992	12249.14
526.341	12384.98
526.69	12284.93
527.039	12008.19
527.388	11770.96
527.737	12428.81
528.086	13475.77
528.434	14098.97
528.783	13585.48
529.132	12976.6
529.48	12532.05
529.829	12471.37
530.177	12211.31
530.526	12078.37
530.874	12305.86
531.223	12237.03
531.571	12210.05
531.919	12289.98
532.268	12997.19
532.616	14060.74
532.964	14385.85
533.312	14473.17
533.66	14332.44
534.008	14415.79
534.356	14477.16
534.704	14279.53
535.052	13846.75
535.4	13261.2
535.748	12593.21
536.095	11992.79
536.443	11926.12
536.791	12336.35
537.139	12991.67
537.486	13617.53
537.834	13877.76
538.181	14067.49
538.529	13980.77
538.876	13976.52
539.223	13546.66
539.571	13070.51
539.918	13044.9
540.265	13485.04
540.613	13888.76
540.96	13708.89
541.307	13554.17
541.654	13571.2
542.001	13569.2
542.348	13525.62
542.695	13525.12
543.042	13984.02
543.388	14252.56
543.735	14318.97
544.082	14467.68
544.429	14352.66
544.775	13786.21
545.122	13047.41
545.469	12548.16
545.815	12526.51
546.162	12811.02
546.508	13296.81
546.854	14276.28
547.201	15383.76
547.547	15784.44
547.893	15118.65
548.24	13916.02
548.586	12414.2
548.932	12116.97
549.278	12075.84
549.624	12189.62
549.97	12033.19
550.316	11517.95
550.662	11287.88
551.008	12252.92
551.353	13834.24
551.699	14654.2
552.045	14145.18
552.391	13269.98
552.736	13178.67
553.082	13120.71
553.427	12773.81
553.773	11875.85
554.118	11813.93
554.464	12408.66
554.809	13354.22
555.154	13983.52
555.5	13836.49
555.845	12924.6
556.19	12396.32
556.535	11725.45
556.88	11948.6
557.225	12163.14
557.57	11698.64
557.915	11190.73
558.26	10888.25
558.605	10902.74
558.95	11286.61
559.295	12529.54
559.639	13573.21
559.984	14735.94
560.329	14865.98
560.673	14926.99
561.018	14111.46
561.362	13417.14
561.707	12726.79
562.051	12929.38
562.395	13187.95
562.74	13900.51
563.084	14151.68
563.428	14781.53
563.772	14772.07
564.117	14883.66
564.461	15018.35
564.805	14580.4
565.149	14930.97
565.493	14907.57
565.836	15447.14
566.18	15765.57
566.524	18018.11
566.868	19217.71
567.212	20124.18
567.555	20288.67
567.899	22292.11
568.242	24214.1
568.586	27537.85
568.929	31496.45
569.273	35455.52
569.616	35813.73
569.96	36981.73
570.303	39481.19
570.646	40472.22
570.989	42838.05
571.333	42572.16
571.676	39837.92
572.019	33996.58
572.362	36925.1
572.705	42718.93
573.048	47862.89
573.391	51087.44
573.733	52789.17
574.076	53910.53
574.419	51926.7
574.762	46706.5
575.104	41260.68
575.447	40754.21
575.789	45850.37
576.132	51837.41
576.474	52806.16
576.817	60489.95
577.159	67912.05
577.501	68538.93
577.844	60895.4
578.186	49206.35
578.528	44344.1
578.87	44047.4
579.212	46191.09
579.554	50050.83
579.896	49306.76
580.238	54005.99
580.58	68652.48
580.922	68652.48
581.264	68652.48
581.606	68652.48
581.947	63918.29
582.289	52875.03
582.631	42930.22
582.972	37356.49
583.314	37624.72
583.655	39644.89
583.997	47050.64
584.338	54502.73
584.679	59538.54
585.021	57836.75
585.362	50753.56
585.703	44031.85
586.044	42323.93
586.385	46821.96
586.726	51582.97
587.067	49240.85
587.408	44004.01
587.749	40210.97
588.09	36786.37
588.431	33223.83
588.772	30186.48
589.113	30944.69
589.453	31272.62
589.794	29828.8
590.134	26781.99
590.475	25349.98
