Data from FLMS007011_12-17-56-419.txt Node
Date: Thu Apr 21 12:17:56 MDT 2016
User: lab_user
Spectrometer: FLMS00701
Autoset integration time: false
Trigger mode: 0
Integration Time (sec): 5.000000E-3
Scans to average: 10
Electric dark correction enabled: true
Nonlinearity correction enabled: true
Boxcar width: 0
XAxis mode: Wavelengths
Stop averaging: false
Number of Pixels in Spectrum: 2048
>>>>>Begin Spectral Data<<<<<
178.41	21.76
178.791	21.76
179.172	21.76
179.553	-32.24
179.934	-46.54
180.316	-61.69
180.697	-75.42
181.078	-65.69
181.459	-20.24
181.84	-55.11
182.221	-8.81
182.602	-7.95
182.983	-11.38
183.364	29.18
183.744	14.9
184.125	53.45
184.506	108.24
184.887	113.66
185.268	160.99
185.648	160.99
186.029	186.36
186.41	207.72
186.791	237.05
187.171	274.91
187.552	330.95
187.932	322.42
188.313	359.1
188.694	407.68
189.074	396.89
189.455	405.98
189.835	472.42
190.216	428.7
190.596	432.11
190.977	482.06
191.357	485.47
191.737	485.47
192.118	488.59
192.498	525.18
192.878	517.24
193.258	516.39
193.639	508.73
194.019	550.7
194.399	507.6
194.779	524.9
195.159	564.3
195.54	539.36
195.92	548.99
196.3	548.14
196.68	576.49
197.06	562.88
197.44	547.58
197.82	564.3
198.2	539.07
198.58	573.09
198.959	569.12
199.339	537.37
199.719	541.34
200.099	538.51
200.479	539.36
200.858	549.84
201.238	555.51
201.618	539.07
201.998	547.58
202.377	576.49
202.757	537.09
203.136	543.32
203.516	566.28
203.896	541.91
204.275	533.69
204.655	574.5
205.034	559.2
205.414	565.43
205.793	558.92
206.172	582.44
206.552	569.12
206.931	597.45
207.31	576.77
207.69	579.89
208.069	597.45
208.448	578.19
208.827	598.3
209.207	581.02
209.586	583.29
209.965	598.3
210.344	591.22
210.723	609.92
211.102	609.63
211.481	635.12
211.86	635.4
212.239	616.43
212.618	615.01
212.997	636.25
213.376	622.09
213.755	669.94
214.134	663.43
214.513	682.95
214.891	648.71
215.27	698.23
215.649	675.03
216.028	675.03
216.406	712.37
216.785	705.3
217.164	722.27
217.542	747.43
217.921	763.26
218.3	756.48
218.678	757.04
219.057	790.39
219.435	814.68
219.814	824.57
220.192	819.76
220.57	853.08
220.949	863.52
221.327	883.84
221.705	870.02
222.084	898.23
222.462	921.92
222.84	940.81
223.218	971.26
223.597	1006.75
223.975	1014.36
224.353	1066.44
224.731	1076.86
225.109	1063.63
225.487	1127.77
225.865	1163.48
226.243	1189.05
226.621	1240.17
226.999	1266.27
227.377	1330.24
227.755	1325.19
228.133	1368.64
228.511	1421.6
228.889	1455.2
229.266	1489.9
229.644	1583.02
230.022	1588.89
230.4	1609.85
230.777	1642.25
231.155	1671.84
231.533	1751.63
231.91	1840.8
232.288	1843.58
232.665	1881.73
233.043	1937.65
233.42	1988.81
233.798	2075.21
234.175	2114.62
234.553	2154.57
234.93	2220.55
235.307	2268.75
235.685	2331.03
236.062	2344.86
236.439	2367.54
236.816	2483.34
237.194	2486.65
237.571	2581.86
237.948	2605.58
238.325	2649.95
238.702	2704.22
239.079	2745.79
239.456	2787.34
239.833	2872.84
240.21	2952.48
240.587	2981.03
240.964	3052.06
241.341	3077.01
241.718	3136.19
242.095	3173.97
242.472	3223.5
242.849	3257.96
243.225	3328.75
243.602	3364.26
243.979	3416.41
244.356	3455.7
244.732	3553.84
245.109	3601.77
245.486	3617.02
245.862	3659.21
246.239	3751.4
246.615	3759.82
246.992	3815.25
247.368	3849.73
247.745	3935.47
248.121	3991.86
248.497	3988.88
248.874	4036.3
249.25	4084.5
249.626	4187.58
250.003	4168.65
250.379	4222.99
250.755	4278.65
251.131	4342.37
251.507	4376.1
251.884	4427.07
252.26	4450.53
252.636	4538.62
253.012	4543.47
253.388	4607.26
253.764	4676.66
254.14	4689.83
254.516	4764.26
254.892	4748.95
255.268	4771.78
255.643	4782.52
256.019	4825.74
256.395	4873.5
256.771	4942.69
257.147	4975.11
257.522	4962.79
257.898	4968.15
258.274	5023.06
258.649	5028.15
259.025	5072.86
259.4	5089.99
259.776	5156.33
260.151	5143.76
260.527	5164.89
260.902	5202.85
261.278	5197.77
261.653	5206.32
262.028	5218.88
262.404	5295.54
262.779	5317.43
263.154	5284.59
263.53	5297.41
263.905	5309.42
264.28	5339.85
264.655	5335.31
265.03	5310.76
265.405	5350.79
265.781	5398.28
266.156	5400.41
266.531	5430.28
266.906	5396.41
267.281	5488.91
267.655	5426.81
268.03	5434.01
268.405	5427.08
268.78	5468.92
269.155	5465.19
269.53	5467.33
269.904	5473.99
270.279	5504.09
270.654	5468.92
271.029	5489.18
271.403	5493.44
271.778	5493.17
272.152	5440.67
272.527	5435.07
272.901	5524.87
273.276	5475.05
273.65	5535.26
274.025	5522.21
274.399	5481.18
274.774	5533.39
275.148	5553.36
275.522	5517.95
275.897	5538.45
276.271	5492.64
276.645	5513.15
277.019	5556.83
277.393	5599.15
277.768	5571.47
278.142	5503.3
278.516	5506.23
278.89	5527
279.264	5484.11
279.638	5563.21
280.012	5546.44
280.386	5499.3
280.76	5505.96
281.133	5503.3
281.507	5531
281.881	5493.44
282.255	5458.8
282.629	5475.59
283.002	5472.92
283.376	5438.27
283.75	5412.94
284.123	5424.41
284.497	5418.81
284.87	5469.99
285.244	5409.48
285.618	5430.01
285.991	5365.73
286.364	5350.26
286.738	5300.61
287.111	5305.42
287.485	5266.7
287.858	5215.94
288.231	5237.58
288.605	5210.86
288.978	5258.42
289.351	5181.2
289.724	5136
290.097	5133.33
290.47	5074.47
290.843	5072.06
291.217	5030.03
291.59	4926.07
291.963	5012.35
292.336	4938.67
292.708	4919.1
293.081	4937.06
293.454	4876.99
293.827	4844.8
294.2	4752.71
294.573	4825.47
294.945	4710.79
295.318	4719.12
295.691	4640.89
296.064	4661.33
296.436	4641.7
296.809	4590.85
297.181	4542.93
297.554	4554.24
297.926	4537.28
298.299	4446.21
298.671	4488.52
299.044	4422.76
299.416	4400.91
299.788	4464.54
300.161	4356.94
300.533	4338.05
300.905	4417.63
301.278	4326.71
301.65	4280.54
302.022	4298.63
302.394	4250.55
302.766	4235.69
303.138	4172.7
303.51	4205.15
303.882	4273.79
304.254	4234.07
304.626	4153.5
304.998	4221.64
305.37	4095.05
305.742	4170.54
306.114	4155.94
306.485	4164.59
306.857	4168.11
307.229	4146.74
307.601	4123.2
307.972	4038.46
308.344	4084.77
308.716	3986.98
309.087	4023.56
309.459	3961.23
309.83	4001.08
310.202	3944.15
310.573	3955.81
310.945	3957.44
311.316	3928.69
311.687	3955.27
312.059	3942.52
312.43	3905.09
312.801	3957.17
313.172	3952.29
313.544	3983.46
313.915	4088.29
314.286	4144.57
314.657	4202.45
315.028	4347.76
315.399	4476.4
315.77	4539.7
316.141	4694.67
316.512	4857.94
316.883	4959.84
317.254	5108.18
317.625	5199.37
317.996	5304.62
318.366	5419.08
318.737	5536.59
319.108	5671.5
319.478	5754.96
319.849	5796.13
320.22	5869.13
320.59	5948.18
320.961	5964.61
321.331	6078.8
321.702	6091.24
322.072	6137.56
322.443	6204.75
322.813	6316.01
323.184	6360.64
323.554	6368.3
323.924	6476.21
324.295	6512.07
324.665	6478.06
325.035	6608.5
325.405	6598.5
325.775	6616.14
326.145	6606.66
326.515	6680.11
326.886	6616.93
327.256	6562.93
327.626	6536.85
327.995	6368.03
328.365	6312.05
328.735	6121.16
329.105	6011.79
329.475	5918.48
329.845	6026.89
330.215	6187.56
330.584	6335.82
330.954	6544.22
331.324	6718.53
331.693	6675.11
332.063	6628.25
332.432	6537.9
332.802	6272.95
333.171	6052.85
333.541	5876.83
333.91	5829.06
334.28	5701.28
334.649	5611.12
335.018	5601.28
335.388	5546.17
335.757	5468.92
336.126	5341.45
336.495	5365.73
336.865	5285.39
337.234	5188.95
337.603	5203.92
337.972	5193.49
338.341	5190.82
338.71	5233.84
339.079	5170.5
339.448	5225.83
339.817	5199.64
340.186	5266.97
340.554	5287.53
340.923	5313.96
341.292	5325.17
341.661	5427.88
342.029	5534.99
342.398	5554.43
342.767	5615.91
343.135	5813.39
343.504	5855.34
343.872	6007.28
344.241	6111.36
344.609	6188.09
344.978	6308.35
345.346	6448.52
345.715	6564.78
346.083	6672.74
346.451	6836.58
346.82	6934.01
347.188	7137
347.556	7129.4
347.924	7297.75
348.292	7394.76
348.66	7600.52
349.028	7609.13
349.396	7758.76
349.764	7926.39
350.132	8075.86
350.5	8191.39
350.868	8262.47
351.236	8330.14
351.604	8454.75
351.972	8569.13
352.34	8564.47
352.707	8755.23
353.075	8842.49
353.443	8850.23
353.81	8942.84
354.178	9021.98
354.545	9237.75
354.913	9203.27
355.28	9291.25
355.648	9357.07
356.015	9526.59
356.383	9604.35
356.75	9590.24
357.117	9664.11
357.485	9783.29
357.852	9779.19
358.219	9949.2
358.586	9941.78
358.954	9924.38
359.321	9976.07
359.688	10094.21
360.055	10149.41
360.422	10196.16
360.789	10124.88
361.156	10283.24
361.523	10209.7
361.89	10243.66
362.256	10427.65
362.623	10330.2
362.99	10400.36
363.357	10437.85
363.724	10490.37
364.09	10485.78
364.457	10527.32
364.823	10656.98
365.19	10603.5
365.557	10711.45
365.923	10805.85
366.29	10672.51
366.656	10832.81
367.022	10892.31
367.389	10839.93
367.755	10817.8
368.121	10905.78
368.488	10955.85
368.854	10853.91
369.22	10797.96
369.586	10854.68
369.952	10784.99
370.318	10742.5
370.684	10688.54
371.051	10835.1
371.416	10709.93
371.782	10767.94
372.148	10798.22
372.514	10773.29
372.88	10782.7
373.246	10771
373.612	10906.54
373.977	10922.81
374.343	10984.3
374.709	11124.48
375.074	11030.28
375.44	11060.25
375.806	10883.66
376.171	11002.59
376.537	10997.26
376.902	11032.31
377.268	11116.1
377.633	11210
377.998	11279.75
378.364	11432.58
378.729	11535.66
379.094	11524.52
379.459	11226.23
379.825	11163.82
380.19	11286.85
380.555	11103.16
380.92	10955.59
381.285	10885.19
381.65	10954.57
382.015	10993.96
382.38	11020.88
382.745	10870.7
383.11	10849.59
383.474	10913.66
383.839	10820.35
384.204	10873.49
384.569	10789.82
384.933	10761.08
385.298	10683.71
385.663	10738.43
386.027	10842.47
386.392	10857.47
386.756	11063.55
387.121	11121.69
387.485	11283.04
387.849	11351.24
388.214	11169.4
388.578	11140.72
388.942	10985.06
389.307	10939.33
389.671	10945.68
390.035	10905.52
390.399	11053.14
390.763	11174.98
391.127	11261.23
391.492	11565.28
391.856	11842.98
392.219	12108.63
392.583	12132.1
392.947	11852.84
393.311	11447.28
393.675	11329.69
394.039	11226.23
394.403	11244.24
394.766	11123.97
395.13	11089.45
395.494	11092.75
395.857	11174.48
396.221	11287.61
396.584	11495.14
396.948	11705.2
397.311	12104.6
397.675	12231.72
398.038	12407.89
398.401	12106.11
398.765	11826.05
399.128	11570.09
399.491	11286.09
399.854	11240.44
400.218	11157.73
400.581	11124.99
400.944	11093
401.307	10878.83
401.67	10941.11
402.033	10799.24
402.396	10830.77
402.759	10921.79
403.122	10916.2
403.485	10991.92
403.847	11135.14
404.21	11359.86
404.573	11452.59
404.936	11505.27
405.298	11384.44
405.661	11023.93
406.023	10815.77
406.386	10649.85
406.749	10597.64
407.111	10640.17
407.473	10814.24
407.836	10967.03
408.198	11186.91
408.561	11112.8
408.923	11117.37
409.285	11098.84
409.647	11027.23
410.009	10779.14
410.372	10762.6
410.734	10705.85
411.096	10777.61
411.458	10846.79
411.82	10894.59
412.182	11065.83
412.544	11067.36
412.906	11080.56
413.267	11130.57
413.629	10960.67
413.991	10858.24
414.353	10852.39
414.714	10651.88
415.076	10603.5
415.438	10648.83
415.799	10759.29
416.161	10599.68
416.522	10527.32
416.884	10416.42
417.245	10442.18
417.607	10412.6
417.968	10435.55
418.329	10576.75
418.691	10505.15
419.052	10663.09
419.413	10715.78
419.774	10866.12
420.135	11183.1
420.497	11633.61
420.858	12121.25
421.219	12072.04
421.58	11991.52
421.941	11600.97
422.302	11131.59
422.662	11104.43
423.023	10862.31
423.384	10810.68
423.745	10871.2
424.106	10901.46
424.466	11121.94
424.827	10921.54
425.187	10633.04
425.548	10385.31
425.909	10199.74
426.269	10297.02
426.63	10387.6
426.99	10659.27
427.35	10613.18
427.711	10621.33
428.071	10785.24
428.431	11068.63
428.792	11864.72
429.152	12650.06
429.512	12920.82
429.872	12774.81
430.232	12523.98
430.592	12026.36
430.952	11230.8
431.312	10776.85
431.672	10299.57
432.032	10299.57
432.392	10426.88
432.752	11276.96
433.111	12030.14
433.471	12165.9
433.831	11353.77
434.19	11080.05
434.55	11020.88
434.91	10838.15
435.269	11020.12
435.629	11068.63
435.988	11201.63
436.348	11097.06
436.707	10645.26
437.066	10631.26
437.426	10676.58
437.785	10856.71
438.144	10961.44
438.503	10829.5
438.862	10693.89
439.222	10535.99
439.581	10396.02
439.94	10501.58
440.299	11077.01
440.658	11813.67
441.017	12094.25
441.376	11948.59
441.734	11639.43
442.093	11485.52
442.452	11623.49
442.811	11738.08
443.169	11808.61
443.528	11531.35
443.887	11316.26
444.245	11289.89
444.604	11115.85
444.962	10908.83
445.321	10784.23
445.679	10967.53
446.038	11137.42
446.396	10984.3
446.754	10581.59
447.112	10516.36
447.471	10444.48
447.829	10221.7
448.187	10298.81
448.545	10325.09
448.903	10385.05
449.261	10342.45
449.619	10138.42
449.977	10126.41
450.335	9856.29
450.693	9786.11
451.051	9803.78
451.409	9676.93
451.766	9737.42
452.124	9520.69
452.482	9319.28
452.839	9126.31
453.197	8943.36
453.555	8878.61
453.912	8952.38
454.27	9110.86
454.627	9328.53
454.984	9492.19
455.342	9322.88
455.699	9003.68
456.056	9065.53
456.414	9259.88
456.771	9450.08
457.128	9527.36
457.485	9726.92
457.842	9634.1
458.199	9698.46
458.556	9789.95
458.913	9720.76
459.27	9913.63
459.627	9714.36
459.984	9737.42
460.341	9871.39
460.697	9698.21
461.054	9301.02
461.411	8771.49
461.767	8491.25
462.124	8452.16
462.481	8676.43
462.837	8890.48
463.194	9373
463.55	9245.47
463.907	9618.2
464.263	9881.63
464.619	10342.7
464.976	10604.52
465.332	10849.59
465.688	10449.83
466.044	9683.85
466.4	9333.93
466.756	9047.23
467.112	8985.9
467.468	9026.88
467.824	9008.84
468.18	8742.57
468.536	8784.41
468.892	8436.62
469.248	8339.73
469.604	8170.63
469.959	8171.15
470.315	8221.49
470.671	8245.61
471.026	8349.06
471.382	8459.66
471.737	8667.64
472.093	8845.33
472.448	9057.28
472.804	9404.09
473.159	9597.93
473.514	9582.03
473.87	9627.95
474.225	10088.33
474.58	10587.96
474.935	10740.21
475.29	10572.17
475.645	10370.77
476	10183.39
476.355	10130.5
476.71	9986.04
477.065	10425.86
477.42	10784.48
477.775	10956.61
478.13	10803.56
478.485	10888.75
478.839	11009.96
479.194	11464.75
479.549	11879.37
479.903	12065.48
480.258	11842.48
480.612	11974.34
480.967	12452.73
481.321	12665.16
481.675	12320.46
482.03	11854.36
482.384	11560.47
482.738	11727.71
483.093	11815.69
483.447	12243.83
483.801	12965.03
484.155	13503.06
484.509	15256.69
484.863	30842.77
485.217	43833
485.571	49028.57
485.925	35540.73
486.279	23437.97
486.632	17820.4
486.986	15390.2
487.34	13691.36
487.694	12563.5
488.047	12181.04
488.401	12255.43
488.754	12169.69
489.108	11859.41
489.461	11713.55
489.815	11394.07
490.168	11638.16
490.522	11715.57
490.875	11664.73
491.228	11612.1
491.581	11648.28
491.935	11689.01
492.288	11548.57
492.641	11748.95
492.994	11675.61
493.347	11940.76
493.7	11962.48
494.053	11972.58
494.406	11773.98
494.759	11219.64
495.111	11446.01
495.464	12399.83
495.817	13316.35
496.169	13017.02
496.522	12080.62
496.875	11027.23
497.227	10679.38
497.58	10565.29
497.932	10844.51
498.285	10902.73
498.637	11517.43
498.989	11860.42
499.342	11905.65
499.694	11512.11
500.046	11069.14
500.398	11461.97
500.751	11761.34
501.103	11864.46
501.455	11911.46
501.807	11896.8
502.159	11879.37
502.511	11851.32
502.862	11817.71
503.214	11613.37
503.566	11162.3
503.918	10830.52
504.27	10789.31
504.621	10784.23
504.973	10670.47
505.324	10735.63
505.676	10999.04
506.027	11162.8
506.379	10685.23
506.73	10086.54
507.082	10032.34
507.433	10428.92
507.784	10771.51
508.136	10567.32
508.487	10413.62
508.838	10012.39
509.189	10006.51
509.54	10190.29
509.891	10145.07
510.242	10058.93
510.593	9952.78
510.944	9830.17
511.295	9590.49
511.646	9287.65
511.996	9237.24
512.347	9402.81
512.698	9506.31
513.049	9479.1
513.399	9161.84
513.75	9253.96
514.1	9138.92
514.451	8791.64
514.801	8598.61
515.152	8714.41
515.502	9028.17
515.852	9278.39
516.202	9248.04
516.553	9146.65
516.903	8832.94
517.253	8634.55
517.603	8360.72
517.953	8492.8
518.303	8785.95
518.653	9112.4
519.003	9110.34
519.353	8555.94
519.703	8158.17
520.052	7948.5
520.402	8020.77
520.752	8261.18
521.102	8175.56
521.451	7943.04
521.801	7940.7
522.15	8000.76
522.5	8221.23
522.849	8213.71
523.199	8323.4
523.548	8530.32
523.897	8442.83
524.246	8249.51
524.596	7958.9
524.945	7934.98
525.294	7981.26
525.643	8009.6
525.992	8044.42
526.341	8076.64
526.69	8047.54
527.039	7925.87
527.388	7712.12
527.737	8068.84
528.086	8680.3
528.434	9169.56
528.783	9003.42
529.132	8626.28
529.48	8283.74
529.829	8085.73
530.177	8034.81
530.526	7903.24
530.874	8017.65
531.223	8041.56
531.571	7967.48
531.919	7988.02
532.268	8338.44
532.616	8969.14
532.964	9399.98
533.312	9482.69
533.66	9374.8
534.008	9319.79
534.356	9349.36
534.704	9302.05
535.052	9066.04
535.4	8743.34
535.748	8271.29
536.095	7900.9
536.443	7712.9
536.791	7971.9
537.139	8330.14
537.486	8798.86
537.834	9032.29
538.181	9070.16
538.529	9045.17
538.876	8995.18
539.223	8872.16
539.571	8544.3
539.918	8410.72
540.265	8642.31
540.613	8984.87
540.96	8922.47
541.307	8815.64
541.654	8711.31
542.001	8852.55
542.348	8793.18
542.695	8790.34
543.042	8925.05
543.388	9181.14
543.735	9274.02
544.082	9298.97
544.429	9334.19
544.775	9016.05
545.122	8508.33
545.469	8031.17
545.815	8076.12
546.162	8279.85
546.508	8525.15
546.854	9028.17
547.201	9850.14
547.547	10192.33
547.893	9892.13
548.24	9068.36
548.586	8067.8
548.932	7818.4
549.278	7713.95
549.624	7861.61
549.97	7853.28
550.316	7461.91
550.662	7233.11
551.008	7720.98
551.353	8828.29
551.699	9469.6
552.045	9278.65
552.391	8654.46
552.736	8470.02
553.082	8363.57
553.427	8290.74
553.773	7754.59
554.118	7527.98
554.464	7845.21
554.809	8435.84
555.154	8993.11
555.5	9073.51
555.845	8440.76
556.19	7911.31
556.535	7508.14
556.88	7653.47
557.225	7780.38
557.57	7572.09
557.915	7223.43
558.26	6918.79
558.605	6966.56
558.95	7144.08
559.295	7890.75
559.639	8657.04
559.984	9429.27
560.329	9656.16
560.673	9584.85
561.018	9131.46
561.362	8687.8
561.707	8131.43
562.051	8199.44
562.395	8373.16
562.74	8818.48
563.084	9063.72
563.428	9427.73
563.772	9458.81
564.117	9530.96
564.461	9613.84
564.805	9455.98
565.149	9432.87
565.493	9527.11
565.836	9754.59
566.18	10003.18
566.524	11199.09
566.868	12300.55
567.212	12744.89
567.555	12966.04
567.899	13978.75
568.242	15394.18
568.586	17321.95
568.929	19834.92
569.273	22482.82
569.616	22938.83
569.96	23394.29
570.303	24747.77
570.646	25562.25
570.989	27003.45
571.333	26983.07
571.676	25571.08
572.019	21427.33
572.362	22431.52
572.705	26415.19
573.048	30276.76
573.391	32354.92
573.733	33507.41
574.076	34370.4
574.419	33063.8
574.762	29517.18
575.104	25826.82
575.447	24672.44
575.789	28045.6
576.132	32729.03
576.474	33364.12
576.817	38439.99
577.159	44281.3
577.501	45949.65
577.844	40270.8
578.186	30886.83
578.528	26785.9
578.87	26794.01
579.212	28470.94
579.554	31534.85
579.896	31109.62
580.238	33385.58
580.58	44797.43
580.922	52436.65
581.264	56421.56
581.606	48180.21
581.947	41377.35
582.289	32895.42
582.631	26093.13
582.972	22272.95
583.314	22783.97
583.655	24289.17
583.997	28993.73
584.338	34670.29
584.679	38501.17
585.021	37806.87
585.362	31991.01
585.703	27333.74
586.044	25311.19
586.385	28781.84
586.726	32511.89
587.067	31563.91
587.408	27512.54
587.749	24801.51
588.09	22729.24
588.431	20534.98
588.772	18348.89
589.113	18967.98
589.453	19613.24
589.794	18829.04
590.134	16774.13
590.475	15680.89
590.815	15771.02
591.156	16164.25
591.496	16325.62
591.837	21854.12
592.177	27476.68
592.517	31376.76
592.857	28533.6
593.198	24850.1
593.538	20064.65
593.878	18073.12
594.218	19049.26
594.558	21453.86
594.898	20792.79
