Data from FLMS007011_11-32-56-093.txt Node
Date: Thu Apr 21 11:32:56 MDT 2016
User: lab_user
Spectrometer: FLMS00701
Autoset integration time: false
Trigger mode: 0
Integration Time (sec): 5.000000E-3
Scans to average: 10
Electric dark correction enabled: true
Nonlinearity correction enabled: true
Boxcar width: 0
XAxis mode: Wavelengths
Stop averaging: false
Number of Pixels in Spectrum: 2048
>>>>>Begin Spectral Data<<<<<
178.41	36
178.791	36
179.172	36
179.553	-33.99
179.934	-47.42
180.316	-79.17
180.697	-68.87
181.078	-60.58
181.459	-61.43
181.84	-54
182.221	-34.28
182.602	10.3
182.983	-15.13
183.364	28.01
183.744	42.57
184.125	67.69
184.506	90.52
184.887	107.35
185.268	125.89
185.648	170.37
186.029	189.17
186.41	206.84
186.791	241.58
187.171	272.04
187.552	348.55
187.932	396.29
188.313	394.02
188.694	397.71
189.074	437.47
189.455	446.56
189.835	459.61
190.216	480.05
190.596	479.48
190.977	514.94
191.357	525.43
191.737	550.95
192.118	521.18
192.498	542.44
192.878	569.94
193.258	572.77
193.639	571.35
194.019	575.32
194.399	573.34
194.779	588.36
195.159	591.75
195.54	606.2
195.92	583.82
196.3	573.05
196.68	582.97
197.06	603.37
197.44	581.27
197.82	571.07
198.2	566.25
198.58	590.62
198.959	574.75
199.339	580.14
199.719	603.09
200.099	601.39
200.479	613.85
200.858	612.15
201.238	605.07
201.618	599.12
201.998	585.52
202.377	611.87
202.757	601.39
203.136	601.95
203.516	621.78
203.896	619.51
204.275	599.69
204.655	620.65
205.034	634.8
205.414	633.95
205.793	596.57
206.172	641.03
206.552	624.33
206.931	636.22
207.31	658.87
207.69	648.11
208.069	671.04
208.448	703.29
208.827	705.27
209.207	699.33
209.586	713.19
209.965	701.03
210.344	734.96
210.723	746.84
211.102	732.14
211.481	781.88
211.86	764.64
212.239	780.19
212.618	783.01
212.997	833.85
213.376	825.95
213.755	834.13
214.134	823.4
214.513	863.77
214.891	886.91
215.27	926.97
215.649	935.14
216.028	940.5
216.406	944.73
216.785	953.75
217.164	995.17
217.542	1015.45
217.921	1018.55
218.3	1053.47
218.678	1118.46
219.057	1094.55
219.435	1136.46
219.814	1169.63
220.192	1204.75
220.57	1210.65
220.949	1214.02
221.327	1269.89
221.705	1320.67
222.084	1317.02
222.462	1380.38
222.84	1413.72
223.218	1471.68
223.597	1476.16
223.975	1533.79
224.353	1597.24
224.731	1603.11
225.109	1663.16
225.487	1720.64
225.865	1738.21
226.243	1814.86
226.621	1855.81
226.999	1915.09
227.377	1956.26
227.755	2018.24
228.133	2089.06
228.511	2107.93
228.889	2145.66
229.266	2214.42
229.644	2294.74
230.022	2368.34
230.4	2385.21
230.777	2447.4
231.155	2502.08
231.533	2567.21
231.91	2686.84
232.288	2709.15
232.665	2768.05
233.043	2837.63
233.42	2906.05
233.798	2994.17
234.175	2986.48
234.553	3082.46
234.93	3193.92
235.307	3262.31
235.685	3275.16
236.062	3387.71
236.439	3384.98
236.816	3528.47
237.194	3606.1
237.571	3657.55
237.948	3751.1
238.325	3861.92
238.702	3902.35
239.079	3945.48
239.456	4027.87
239.833	4049.81
240.21	4162.67
240.587	4206.2
240.964	4335.86
241.341	4391.17
241.718	4457.5
242.095	4542.36
242.472	4601.31
242.849	4589.2
243.225	4736.56
243.602	4793.5
243.979	4857.11
244.356	4974.28
244.732	4994.11
245.109	5105.75
245.486	5112.43
245.862	5258.66
246.239	5319.54
246.615	5355.57
246.992	5365.17
247.368	5437.98
247.745	5537.09
248.121	5610.56
248.497	5674.4
248.874	5787.87
249.25	5892.19
249.626	5904.39
250.003	5979.43
250.379	6092.54
250.755	6112.13
251.131	6238.3
251.507	6276.62
251.884	6411.03
252.26	6364.57
252.636	6492.53
253.012	6529.44
253.388	6647.44
253.764	6734.81
254.14	6710.34
254.516	6790.55
254.892	6893.03
255.268	6942.65
255.643	7013.24
256.019	7045.49
256.395	7046.02
256.771	7189.36
257.147	7203.24
257.522	7277.84
257.898	7323.88
258.274	7357.87
258.649	7410.15
259.025	7458.75
259.4	7462.41
259.776	7523.51
260.151	7621.36
260.527	7683.68
260.902	7732.68
261.278	7770.97
261.653	7736.07
262.028	7785.3
262.404	7883.96
262.779	7928.45
263.154	8066.73
263.53	8034
263.905	8044.39
264.28	8122.57
264.655	8114.53
265.03	8092.19
265.405	8168.52
265.781	8264.78
266.156	8315.34
266.531	8310.93
266.906	8325.19
267.281	8411.73
267.655	8316.37
268.03	8365.1
268.405	8446.17
268.78	8518.91
269.155	8582.55
269.53	8525.12
269.904	8552.29
270.279	8596.52
270.654	8634.27
271.029	8646.42
271.403	8672.52
271.778	8663.99
272.152	8705.08
272.527	8767.85
272.901	8817.16
273.276	8896.13
273.65	9024.79
274.025	8942.3
274.399	8941.52
274.774	9051.07
275.148	9033.03
275.522	9105.42
275.897	9096.41
276.271	9084.3
276.645	9198.87
277.019	9257.79
277.393	9291.74
277.768	9314.11
278.142	9297.14
278.516	9253.67
278.89	9433.1
279.264	9364.75
279.638	9418.71
280.012	9521.69
280.386	9417.94
280.76	9542.74
281.133	9622.79
281.507	9615.86
281.881	9672.28
282.255	9724.84
282.629	9735.35
283.002	9695.87
283.376	9737.4
283.75	9802.99
284.123	9928.96
284.497	9811.95
284.87	9924.61
285.244	9995.74
285.618	10037.42
285.991	9901.83
286.364	9997.78
286.738	10023.62
287.111	10199.2
287.485	10149.13
287.858	10105.43
288.231	10158.33
288.605	10235.46
288.978	10243.64
289.351	10278.1
289.724	10243.13
290.097	10247.21
290.47	10293.42
290.843	10291.38
291.217	10268.91
291.59	10218.61
291.963	10352.11
292.336	10309.24
292.708	10281.42
293.081	10361.04
293.454	10460.51
293.827	10374.31
294.2	10397.78
294.573	10428.64
294.945	10400.58
295.318	10503.34
295.691	10410.79
296.064	10486.77
296.436	10462.29
296.809	10561.69
297.181	10652.62
297.554	10601.69
297.926	10667.64
298.299	10624.35
298.671	10733.82
299.044	10662.8
299.416	10691.82
299.788	10704.04
300.161	10774.53
300.533	10885.92
300.905	10887.96
301.278	10960.39
301.65	11060.98
302.022	10993.17
302.394	10953.53
302.766	11091.96
303.138	10989.36
303.51	11068.35
303.882	11157.19
304.254	11225.19
304.626	11289.86
304.998	11392.01
305.37	11212.76
305.742	11306.09
306.114	11335.24
306.485	11442.43
306.857	11467.76
307.229	11418.62
307.601	11492.08
307.972	11531.58
308.344	11599.92
308.716	11506.26
309.087	11590.81
309.459	11518.92
309.83	11680.89
310.202	11565.25
310.573	11684.43
310.945	11743.36
311.316	11632.82
311.687	11728.19
312.059	11685.95
312.43	11650.03
312.801	11779.51
313.172	11748.42
313.544	11699.61
313.915	11820.21
314.286	11773.19
314.657	11839.92
315.028	11773.7
315.399	11834.62
315.77	11717.56
316.141	11721.11
316.512	11752.46
316.883	11744.88
317.254	11739.82
317.625	11652.3
317.996	11691.26
318.366	11719.84
318.737	11641.17
319.108	11737.04
319.478	11639.4
319.849	11594.86
320.22	11659.64
320.59	11562.72
320.961	11522.97
321.331	11477.9
321.702	11401.64
322.072	11366.42
322.443	11403.67
322.813	11295.95
323.184	11279.97
323.554	11197.54
323.924	11196.27
324.295	11086.63
324.665	11061.49
325.035	11074.95
325.405	10963.69
325.775	10841.17
326.145	10766.39
326.515	10662.8
326.886	10639.12
327.256	10571.63
327.626	10364.87
327.995	10328.38
328.365	10327.62
328.735	10052.51
329.105	9842.43
329.475	9619.97
329.845	9381.2
330.215	9249.56
330.584	9447.74
330.954	9924.61
331.324	10401.86
331.693	10774.79
332.063	11009.17
332.432	11168.87
332.802	10850.84
333.171	10413.34
333.541	9910.53
333.91	9829.37
334.28	9617.91
334.649	9605.34
335.018	9510.14
335.388	9418.97
335.757	9348.56
336.126	9146.88
336.495	9136.06
336.865	9056.22
337.234	8931.46
337.603	8831.62
337.972	8731.69
338.341	8789.28
338.71	8701.21
339.079	8608.67
339.448	8605.05
339.817	8561.34
340.186	8474.39
340.554	8447.21
340.923	8334.26
341.292	8266.33
341.661	8196.03
342.029	8303.15
342.398	8119.2
342.767	8121.02
343.135	8107.51
343.504	8025.42
343.872	8058.42
344.241	7981.23
344.609	8035.56
344.978	7976.81
345.346	8078.16
345.715	8064.4
346.083	8000.21
346.451	8040.49
346.82	8026.98
347.188	8059.98
347.556	8061.28
347.924	8153.21
348.292	8146.46
348.66	8238.06
349.028	8217.57
349.396	8299.01
349.764	8391.27
350.132	8407.58
350.5	8610.74
350.868	8622.63
351.236	8732.98
351.604	8842.72
351.972	8985.61
352.34	8999.79
352.707	9189.61
353.075	9316.94
353.443	9351.13
353.81	9398.93
354.178	9579.95
354.545	9771.99
354.913	9886.47
355.28	10027.71
355.648	10172.89
356.015	10242.36
356.383	10423.79
356.75	10565.51
357.117	10759.27
357.485	10840.66
357.852	10960.39
358.219	11214.28
358.586	11295.19
358.954	11381.88
359.321	11572.34
359.688	11662.93
360.055	11791.4
360.422	11888.94
360.789	12057.12
361.156	12214.8
361.523	12350.42
361.89	12484.68
362.256	12687.52
362.623	12669.91
362.99	12792.38
363.357	13009.71
363.724	13023.52
364.09	13178.88
364.457	13199.7
364.823	13450.42
365.19	13497.27
365.557	13643.27
365.923	13831.7
366.29	13771.91
366.656	13931.23
367.022	14212.32
367.389	14139.39
367.755	14161.62
368.121	14304.95
368.488	14482.61
368.854	14425.73
369.22	14363.1
369.586	14341.14
369.952	14339.89
370.318	14377.57
370.684	14466.89
371.051	14581.61
371.416	14415.75
371.782	14590.09
372.148	14544.21
372.514	14663.88
372.88	14763.31
373.246	14770.78
373.612	14853.48
373.977	14965.79
374.343	15219.11
374.709	15414.54
375.074	15236.02
375.44	15191.99
375.806	15224.33
376.171	15314.6
376.537	15325.04
376.902	15329.27
377.268	15633.68
377.633	15683.84
377.998	15901.05
378.364	16133.23
378.729	16061.8
379.094	16127.52
379.459	15740.45
379.825	15814.18
380.19	15763.05
380.555	15681.36
380.92	15422.99
381.285	15382.22
381.65	15642.12
382.015	15728.54
382.38	15670.43
382.745	15510.96
383.11	15433.67
383.474	15577.04
383.839	15483.63
384.204	15520.15
384.569	15487.6
384.933	15368.05
385.298	15343.69
385.663	15456.04
386.027	15563.38
386.392	15701.72
386.756	15901.29
387.121	16042.71
387.485	16177.11
387.849	16347.4
388.214	16083.38
388.578	15892.11
388.942	15733.01
389.307	15766.77
389.671	15718.85
390.035	15855.38
390.399	15976.47
390.763	16103.96
391.127	16379.86
391.492	16859.97
391.856	17205.74
392.219	17600.61
392.583	17400.01
392.947	16763.21
393.311	16267.59
393.675	16363.5
394.039	16145.62
394.403	16115.12
394.766	16009.96
395.13	15999.05
395.494	15998.3
395.857	16132.98
396.221	16280.48
396.584	16520.07
396.948	16911.68
397.311	17469.69
397.675	17695.94
398.038	17737.18
398.401	17170.88
398.765	16715.93
399.128	16443.78
399.491	16044.94
399.854	15949.68
400.218	16031.3
400.581	15848.93
400.944	15728.54
401.307	15323.8
401.67	15427.46
402.033	15370.29
402.396	15398.13
402.759	15373.03
403.122	15528.35
403.485	15667.95
403.847	15751.13
404.21	15979.2
404.573	16160.75
404.936	16312.7
405.298	15920.4
405.661	15507.48
406.023	15107.9
406.386	14938.4
406.749	14859.96
407.111	14860.95
407.473	15228.56
407.836	15552.45
408.198	15568.85
408.561	15519.16
408.923	15486.11
409.285	15527.85
409.647	15259.89
410.009	15033.74
410.372	14937.9
410.734	14870.67
411.096	14981.97
411.458	14925.2
411.82	15204.93
412.182	15358.11
412.544	15395.4
412.906	15434.17
413.267	15288.24
413.629	15058.13
413.991	14806.16
414.353	14885.61
414.714	14576.62
415.076	14600.81
415.438	14663.63
415.799	14787.22
416.161	14592.33
416.522	14410.51
416.884	14370.59
417.245	14291.22
417.607	14377.57
417.968	14347.63
418.329	14438.7
418.691	14507.55
419.052	14522.51
419.413	14757.58
419.774	14846.76
420.135	15492.82
420.497	16033.53
420.858	16562.42
421.219	16501.74
421.58	16130.25
421.941	15615.55
422.302	15139.25
422.662	15048.93
423.023	14929.69
423.384	14708.24
423.745	14937.4
424.106	14938.65
424.466	15150.95
424.827	14686.8
425.187	14335.65
425.548	14021.71
425.909	13831.7
426.269	14135.9
426.63	14223.31
426.99	14482.85
427.35	14341.14
427.711	14506.8
428.071	14764.8
428.431	15328.52
428.792	16453.69
429.152	17512.43
429.512	17623.34
429.872	17238.37
430.232	16896.84
430.592	15963.82
430.952	15014.33
431.312	14427.48
431.672	13943.23
432.032	14014.22
432.392	14393.29
432.752	15833.54
433.111	16566.14
433.471	16320.39
433.831	15087.75
434.19	14991.43
434.55	15074.31
434.91	14631.47
435.269	15052.66
435.629	15170.6
435.988	15245.47
436.348	14951.6
436.707	14450.68
437.066	14399.53
437.426	14641.44
437.785	14745.12
438.144	14918.73
438.503	14539.72
438.862	14479.61
439.222	14221.56
439.581	14241.79
439.94	14447.68
440.299	15439.39
440.658	16305.76
441.017	16466.57
441.376	16097.76
441.734	15753.86
442.093	15636.66
442.452	15854.39
442.811	16130.25
443.169	16095.04
443.528	15558.16
443.887	15395.4
444.245	15426.22
444.604	15103.43
444.962	14886.86
445.321	14957.32
445.679	14962.8
446.038	15197.72
446.396	14826.08
446.754	14422.49
447.112	14250.02
447.471	14112.17
447.829	13975.72
448.187	14090.43
448.545	14180.86
448.903	14054.95
449.261	13975.22
449.619	13807.93
449.977	13740.63
450.335	13428.87
450.693	13284.98
451.051	13271.44
451.409	13274.95
451.766	13238.08
452.124	12861.5
452.482	12671.17
452.839	12422.22
453.197	12262.71
453.555	12232.45
453.912	12182.52
454.27	12632.93
454.627	12946.92
454.984	12820.03
455.342	12630.16
455.699	12369.07
456.056	12340.84
456.414	12650.04
456.771	13119.41
457.128	13128.44
457.485	13337.89
457.842	13247.87
458.199	13196.19
458.556	13449.17
458.913	13414.34
459.27	13585.44
459.627	13270.94
459.984	13381.25
460.341	13505.29
460.697	13142.75
461.054	12487.95
461.411	11904.1
461.767	11595.37
462.124	11666.47
462.481	12023.05
462.837	12368.81
463.194	12942.15
463.55	12677.71
463.907	13373.48
464.263	13782.42
464.619	14375.33
464.976	14844.52
465.332	14901.55
465.688	13987.22
466.044	12951.44
466.4	12669.41
466.756	12372.34
467.112	12432.55
467.468	12386.7
467.824	12369.32
468.18	11936.94
468.536	11954.87
468.892	11528.79
469.248	11415.33
469.604	11267.55
469.959	11317.75
470.315	11311.67
470.671	11301.02
471.026	11475.87
471.382	11676.59
471.737	11984.42
472.093	12238.25
472.448	12686.76
472.804	13021.76
473.159	13206.98
473.514	13187.41
473.87	13443.16
474.225	14212.32
474.58	14818.61
474.935	14864.19
475.29	14397.04
475.645	14330.9
476	14137.9
476.355	13940.73
476.71	13857.71
477.065	14579.37
477.42	15141.24
477.775	15080.78
478.13	14943.38
478.485	15107.41
478.839	15389.43
479.194	16179.59
479.549	16673.1
479.903	16726.58
480.258	16348.64
480.612	16771.38
480.967	17539.85
481.321	17719.4
481.675	16883.23
482.03	16397.7
482.384	16230.91
482.738	16365.98
483.093	16635.22
483.447	17387.16
483.801	18352.32
484.155	19058.34
484.509	22841.62
484.863	51170.3
485.217	64492.76
485.571	63884.19
485.925	41140.75
486.279	29498.47
486.632	24992.39
486.986	21302.29
487.34	18568.04
487.694	17495.63
488.047	17142.45
488.401	17247.52
488.754	16964.13
489.108	16493.07
489.461	16244.79
489.815	15946.95
490.168	16267.84
490.522	16422.97
490.875	16313.94
491.228	16065.77
491.581	16219.26
491.935	16334.76
492.288	16093.05
492.641	16355.57
492.994	16366.48
493.347	16717.17
493.7	16706.03
494.053	16751.58
494.406	16199.67
494.759	15557.17
495.111	16354.09
495.464	17955.64
495.817	18767.41
496.169	17907.26
496.522	16444.52
496.875	15251.69
497.227	14909.02
497.58	14993.92
497.932	15330.02
498.285	15474.68
498.637	16321.62
498.989	16700.83
499.342	16640.67
499.694	15922.39
500.046	15505.24
500.398	16282.96
500.751	16677.81
501.103	16632.5
501.455	16694.89
501.807	16663.7
502.159	16761.72
502.511	16774.1
502.862	16600.81
503.214	16201.16
503.566	15627.72
503.918	15186.77
504.27	15289.98
504.621	15309.38
504.973	15095.21
505.324	15228.81
505.676	15735.99
506.027	15773.47
506.379	14771.78
506.73	14223.06
507.082	14485.35
507.433	14926.7
507.784	15278.79
508.136	14737.89
508.487	14584.85
508.838	14124.91
509.189	14177.36
509.54	14643.93
509.891	14274.49
510.242	14256.02
510.593	14110.17
510.944	13923.98
511.295	13449.17
511.646	13076.49
511.996	13297.77
512.347	13563.65
512.698	13493.27
513.049	13354.93
513.399	13094.31
513.75	13229.31
514.1	12856.47
514.451	12360
514.801	12211.78
515.152	12503.31
515.502	12826.56
515.852	13117.4
516.202	13139.24
516.553	13000.16
516.903	12377.13
517.253	12231.44
517.603	12030.62
517.953	12118.45
518.303	12709.4
518.653	12958.22
519.003	12722.23
519.353	11942.5
519.703	11417.61
520.052	11206.67
520.402	11399.11
520.752	11685.7
521.102	11451.81
521.451	11148.31
521.801	11283.52
522.15	11492.33
522.5	11622.45
522.849	11601.7
523.199	11866.2
523.548	12054.6
523.897	11858.12
524.246	11514.36
524.596	11218.09
524.945	11231.02
525.294	11280.73
525.643	11343.86
525.992	11401.14
526.341	11510.06
526.69	11400.38
527.039	11135.11
527.388	10938.79
527.737	11555.88
528.086	12507.84
528.434	13043.6
528.783	12545.86
529.132	12015.98
529.48	11624.98
529.829	11545
530.177	11329.41
530.526	11265.77
530.874	11446.23
531.223	11319.53
531.571	11337.27
531.919	11368.45
532.268	12106.08
532.616	12935.11
532.964	13443.16
533.312	13435.64
533.66	13253.89
534.008	13355.19
534.356	13465.96
534.704	13199.7
535.052	12824.8
535.4	12362.26
535.748	11722.88
536.095	11109.73
536.443	11152.62
536.791	11433.82
537.139	12064.44
537.486	12607.77
537.834	12762.46
538.181	12938.38
538.529	12872.05
538.876	13005.44
539.223	12555.17
539.571	12131.57
539.918	12049.05
540.265	12527.23
540.613	12980.83
540.96	12748.88
541.307	12615.57
541.654	12597.7
542.001	12606.26
542.348	12499.28
542.695	12434.06
543.042	12982.83
543.388	13187.91
543.735	13349.17
544.082	13317.83
544.429	13258.65
544.775	12790.62
545.122	12073.02
545.469	11599.42
545.815	11570.06
546.162	11824
546.508	12270.78
546.854	13169.35
547.201	14213.82
547.547	14549.19
547.893	13969.48
548.24	12761.45
548.586	11582.46
548.932	11249.79
549.278	11134.86
549.624	11414.06
549.97	11149.07
550.316	10743.49
550.662	10484.73
551.008	11234.32
551.353	12833.35
551.699	13536.6
552.045	13058.41
552.391	12219.85
552.736	12157.3
553.082	12113.9
553.427	11852.81
553.773	11032.28
554.118	10882.36
554.464	11453.07
554.809	12377.88
555.154	12879.59
555.5	12841.64
555.845	11923.05
556.19	11319.27
556.535	10842.7
556.88	11114.04
557.225	11235.59
557.57	10916.17
557.915	10383.24
558.26	10039.21
558.605	10138.65
558.95	10361.81
559.295	11592.84
559.639	12511.37
559.984	13435.39
560.329	13735.63
560.673	13732.38
561.018	13011.21
561.362	12336.81
561.707	11806.31
562.051	11902.59
562.395	12110.62
562.74	12935.87
563.084	13030.3
563.428	13679.82
563.772	13669.31
564.117	13749.39
564.461	13850.96
564.805	13562.9
565.149	13839.95
565.493	13757.15
565.836	14149.14
566.18	14497.32
566.524	16520.82
566.868	17750.76
567.212	18489.9
567.555	18706.06
567.899	20569.36
568.242	22310.73
568.586	25329.08
568.929	28945.52
569.273	32675.76
569.616	32930.15
569.96	33990.37
570.303	36253.81
570.646	37248.59
570.989	39585.07
571.333	39109.97
571.676	36803.63
572.019	31117.47
572.362	34202.07
572.705	39371.04
573.048	44042.09
573.391	47160.51
573.733	48562.35
574.076	49734.48
574.419	47710.09
574.762	42998.15
575.104	37651.66
575.447	37419.54
575.789	42026.98
576.132	48039.56
576.474	48563.39
576.817	56260.04
577.159	63105.04
577.501	63476.38
577.844	56462.96
578.186	45120.12
578.528	40625.95
578.87	40384.51
579.212	42457.34
579.554	46052.79
579.896	45435.57
580.238	49366.14
580.58	64521.23
580.922	68775.76
581.264	68775.76
581.606	66735.93
581.947	59301.37
582.289	48782.25
582.631	39514.13
582.972	34120.64
583.314	34632.25
583.655	36360.59
583.997	43211.12
584.338	50465.93
584.679	55230.81
585.021	53493.35
585.362	46594.15
585.703	40141.91
586.044	38754.83
586.385	43154.62
586.726	47609.65
587.067	45307.56
587.408	40204.23
