Data from FLMS007011_11-32-21-506.txt Node
Date: Thu Apr 21 11:32:21 MDT 2016
User: lab_user
Spectrometer: FLMS00701
Autoset integration time: false
Trigger mode: 0
Integration Time (sec): 5.000000E-3
Scans to average: 10
Electric dark correction enabled: true
Nonlinearity correction enabled: true
Boxcar width: 0
XAxis mode: Wavelengths
Stop averaging: false
Number of Pixels in Spectrum: 2048
>>>>>Begin Spectral Data<<<<<
178.41	25.29
178.791	25.29
179.172	25.29
179.553	-57
179.934	-65.58
180.316	-30.99
180.697	-51
181.078	-71.87
181.459	-44.14
181.84	-46.14
182.221	-18.13
182.602	8.44
182.983	-13.84
183.364	36.43
183.744	39.86
184.125	78.96
184.506	88.1
184.887	70.69
185.268	140.58
185.648	163.38
186.029	183.62
186.41	222.07
186.791	241.15
187.171	290.1
187.552	352.39
187.932	354.37
188.313	385.35
188.694	391.6
189.074	418.3
189.455	440.17
189.835	444.14
190.216	468.84
190.596	475.36
190.977	467.42
191.357	503.45
191.737	494.94
192.118	498.06
192.498	519.33
192.878	528.41
193.258	529.26
193.639	525.86
194.019	536.06
194.399	552.51
194.779	556.47
195.159	553.92
195.54	541.73
195.92	557.04
196.3	558.74
196.68	545.99
197.06	583.11
197.44	567.53
197.82	561.86
198.2	548.25
198.58	568.38
198.959	618.81
199.339	585.38
199.719	564.41
200.099	563.56
200.479	598.41
200.858	561.58
201.238	574.05
201.618	579.15
201.998	562.43
202.377	600.96
202.757	588.78
203.136	642.02
203.516	574.33
203.896	597.85
204.275	578.01
204.655	563.56
205.034	583.96
205.414	628.43
205.793	614.56
206.172	645.42
206.552	633.81
206.931	634.38
207.31	614.56
207.69	594.16
208.069	605.21
208.448	608.89
208.827	648.25
209.207	666.93
209.586	667.78
209.965	703.15
210.344	697.21
210.723	693.25
211.102	693.53
211.481	655.89
211.86	658.44
212.239	666.37
212.618	718.99
212.997	773.83
213.376	754.33
213.755	794.17
214.134	774.39
214.513	745.85
214.891	722.66
215.27	717.86
215.649	742.45
216.028	758.57
216.406	791.06
216.785	866.46
217.164	891.57
217.542	925.13
217.921	914.98
218.3	873.23
218.678	858.27
219.057	809.43
219.435	824.11
219.814	851.78
220.192	887.06
220.57	914.98
220.949	1016.16
221.327	1086.25
221.705	1111.29
222.084	1099.19
222.462	1058.67
222.84	1031.65
223.218	994.19
223.597	938.67
223.975	957.84
224.353	1007.71
224.731	1091.6
225.109	1223.71
225.487	1280.41
225.865	1369.59
226.243	1410.22
226.621	1373.52
226.999	1300.62
227.377	1206.01
227.755	1135.75
228.133	1123.66
228.511	1150.09
228.889	1198.71
229.266	1320.81
229.644	1486.66
230.022	1627.55
230.4	1697.34
230.777	1755.08
231.155	1710.74
231.533	1626.44
231.91	1521.63
232.288	1377.16
232.665	1297.53
233.043	1307.91
233.42	1329.79
233.798	1468.46
234.175	1654.64
234.553	1852.32
234.93	1972.8
235.307	2073.37
235.685	2097.8
236.062	2041.44
236.439	1944.99
236.816	1806.64
237.194	1674.18
237.571	1531.69
237.948	1466.23
238.325	1533.65
238.702	1641.8
239.079	1804.97
239.456	2007.82
239.833	2216.5
240.21	2420.18
240.587	2479.58
240.964	2527.07
241.341	2451.41
241.718	2284.91
242.095	2077.81
242.472	1936.93
242.849	1748.39
243.225	1684.79
243.602	1693.16
243.979	1793.83
244.356	2005.87
244.732	2268.58
245.109	2511.06
245.486	2762.96
245.862	2913.88
246.239	3017.89
246.615	2955.88
246.992	2781.94
247.368	2576.18
247.745	2335.29
248.121	2159.39
248.497	1922.46
248.874	1833.39
249.25	1889.63
249.626	2051.99
250.003	2287.4
250.379	2613.13
250.755	2861.68
251.131	3182.29
251.507	3347.71
251.884	3481.71
252.26	3463.71
252.636	3334.87
253.012	3122.32
253.388	2853.43
253.764	2534.52
254.14	2281.87
254.516	2127.77
254.892	2043.38
255.268	2071.7
255.643	2285.74
256.019	2509.68
256.395	2862.23
256.771	3219.23
257.147	3550.13
257.522	3789.82
257.898	3862.87
258.274	3873.45
258.649	3737.37
259.025	3595.62
259.4	3224.97
259.776	2942.71
260.151	2605.41
260.527	2343.86
260.902	2174.64
261.278	2154.67
261.653	2187.39
262.028	2409.95
262.404	2686.7
262.779	3054.91
263.154	3393.04
263.53	3796.07
263.905	3943.71
264.28	4067.82
264.655	4144.14
265.03	4018.52
265.405	3800.41
265.781	3530.78
266.156	3204.45
266.531	2919.1
266.906	2548.59
267.281	2324.22
267.655	2144.41
268.03	2123.05
268.405	2236.45
268.78	2439.8
269.155	2712.04
269.53	3058.75
269.904	3356.72
270.279	3700.39
270.654	3921.75
271.029	4072.42
271.403	4102.2
271.778	4071.61
272.152	3853.09
272.527	3657.95
272.901	3369.01
273.276	3001.16
273.65	2635.46
274.025	2428.2
274.399	2178.24
274.774	2058.65
275.148	2038.94
275.522	2145.24
275.897	2331.41
276.271	2582.52
276.645	2891.08
277.019	3205.28
277.393	3494.25
277.768	3720.51
278.142	3884.04
278.516	3958.36
278.89	3957
279.264	3829.74
279.638	3690.87
280.012	3425.52
280.386	3143.96
280.76	2750.85
281.133	2489.24
281.507	2192.66
281.881	2041.71
282.255	1861.23
282.629	1845.92
283.002	1895.75
283.376	2030.88
283.75	2243.37
284.123	2488.14
284.497	2746.72
284.87	3014.33
285.244	3258.07
285.618	3435.89
285.991	3579.28
286.364	3617.4
286.738	3638.09
287.111	3503.52
287.485	3378.3
287.858	3152.17
288.231	2909.48
288.605	2655.57
288.978	2393.09
289.351	2159.67
289.724	1960.29
290.097	1802.74
290.47	1702.92
290.843	1651.85
291.217	1680.6
291.59	1762.89
291.963	1901.32
292.336	2095.3
292.708	2272.73
293.081	2477.92
293.454	2734.06
293.827	2926.78
294.2	3076.02
294.573	3168.05
294.945	3213.21
295.318	3220.32
295.691	3208.01
296.064	3099.31
296.436	2950.94
296.809	2844.36
297.181	2640.14
297.554	2394.47
297.926	2220.38
298.299	2007.54
298.671	1891.58
299.044	1711.85
299.416	1638.45
299.788	1592.91
300.161	1607.44
300.533	1685.34
300.905	1802.19
301.278	2002.26
301.65	2216.77
302.022	2472.68
302.394	2716.44
302.766	2970.16
303.138	3220.05
303.51	3468.62
303.882	3669.38
304.254	3829.2
304.626	3947.78
304.998	4045.07
305.37	4032.34
305.742	3971.91
306.114	3875.62
306.485	3790.63
306.857	3576.01
307.229	3369.83
307.601	3158.75
307.972	2947.65
308.344	2811.1
308.716	2650.89
309.087	2613.4
309.459	2586.11
309.83	2692.49
310.202	2904.81
310.573	3219.23
310.945	3585.54
311.316	3935.85
311.687	4479.2
312.059	4902.84
312.43	5417.31
312.801	5940.86
313.172	6300.27
313.544	6737.04
313.915	7043.27
314.286	7344.41
314.657	7482.39
315.028	7559.66
315.399	7516.59
315.77	7527.3
316.141	7353.04
316.512	7132.39
316.883	6927.29
317.254	6637.57
317.625	6420.39
317.996	6346.49
318.366	6196.39
318.737	6269.88
319.108	6360.22
319.478	6545.12
319.849	6908.39
320.22	7325.58
320.59	7809.65
320.961	8455.36
321.331	9157.05
321.702	9675.75
322.072	10254.74
322.443	10879.44
322.813	11402.02
323.184	11914.08
323.554	12255.02
323.924	12603.36
324.295	12754.04
324.665	12824.93
325.035	13079.38
325.405	12966.64
325.775	12830.71
326.145	12637.58
326.515	12437.71
326.886	12241.66
327.256	12043.37
327.626	11772.81
327.995	11598.53
328.365	11473.46
328.735	11374.66
329.105	11305.71
329.475	11344.75
329.845	11318.38
330.215	11580.82
330.584	12125.64
330.954	13076.36
331.324	14451.8
331.693	15754.48
332.063	16691.05
332.432	17577.52
332.802	17840.99
333.171	17670.13
333.541	17452.27
333.91	17552.32
334.28	17645.44
334.649	17765.69
335.018	17601.97
335.388	17740.76
335.757	17673.34
336.126	17440.41
336.495	17442.39
336.865	17226.14
337.234	16858.86
337.603	16814.32
337.972	16607.37
338.341	16558.34
338.71	16457.28
339.079	16378.49
339.448	16429.29
339.817	16538.52
340.186	16549.92
340.554	16719.27
340.923	17020.65
341.292	17178.92
341.661	17565.17
342.029	17929.6
342.398	18181.52
342.767	18313.97
343.135	18743.88
343.504	18856.97
343.872	19361.81
344.241	19392.82
344.609	19463.71
344.978	19609.4
345.346	19786.06
345.715	19717.18
346.083	19729.72
346.451	19733.41
346.82	19583.81
347.188	19504.08
347.556	19470.85
347.924	19329.81
348.292	18942.21
348.66	18925.71
349.028	18802.77
349.396	18524.29
349.764	18479.66
350.132	18229.13
350.5	18269.33
350.868	18163.76
351.236	18227.89
351.604	18228.88
351.972	18392.39
352.34	18331.23
352.707	18481.88
353.075	18745.11
353.443	18807.7
353.81	18888.01
354.178	19091.71
354.545	19372.15
354.913	19430.73
355.28	19510.23
355.648	19681.99
356.015	19746.7
356.383	19808.7
356.75	19677.81
357.117	19740.79
357.485	19840.18
357.852	19708.32
358.219	19698.23
358.586	19632.53
358.954	19515.15
359.321	19382.24
359.688	19309.62
360.055	19125.2
360.422	19071.52
360.789	18863.87
361.156	18673.4
361.523	18443.18
361.89	18369.95
362.256	18286.84
362.623	18062.61
362.99	17946.14
363.357	17911.09
363.724	17994.75
364.09	17938.24
364.457	17919.23
364.823	18097.89
365.19	18094.19
365.557	18387.7
365.923	18455.26
366.29	18490.51
366.656	18701.25
367.022	18897.13
367.389	18921.52
367.755	18758.42
368.121	18780.6
368.488	18899.35
368.854	18820.02
369.22	18676.11
369.586	18680.55
369.952	18622.39
370.318	18397.56
370.684	18498.89
371.051	18343.81
371.416	18202.98
371.782	18067.3
372.148	18015.73
372.514	17808.16
372.88	17636.05
373.246	17529.35
373.612	17581.47
373.977	17481.18
374.343	17472.28
374.709	17439.42
375.074	17096.58
375.44	16883.85
375.806	16764.32
376.171	16719.03
376.537	16719.27
376.902	16573.69
377.268	16754.92
377.633	16783.63
377.998	16930.12
378.364	17269.4
378.729	17209.82
379.094	17250.12
379.459	16950.65
379.825	17099.3
380.19	17050.83
380.555	16997.9
380.92	16834.86
381.285	16882.12
381.65	17082.48
382.015	17062.95
382.38	17055.03
382.745	16833.37
383.11	16809.37
383.474	16859.85
383.839	16817.78
384.204	16728.18
384.569	16664.07
384.933	16535.06
385.298	16372.8
385.663	16285.81
386.027	16349.26
386.392	16406.74
386.756	16426.31
387.121	16390.39
387.485	16353.96
387.849	16449.1
388.214	15976.85
388.578	15739.83
388.942	15348.79
389.307	15197.34
389.671	15062.49
390.035	15046.56
390.399	15016.45
390.763	15040.34
391.127	15179.68
391.492	15459.15
391.856	15906.13
392.219	16183.19
392.583	16095.66
392.947	15575.68
393.311	15228.43
393.675	15154.8
394.039	15164.01
394.403	15224.95
394.766	15141.87
395.13	15124.7
395.494	15272.7
395.857	15397.76
396.221	15677.01
396.584	15985.78
396.948	16287.3
397.311	16883.6
397.675	17101.03
398.038	17109.44
398.401	16510.04
398.765	16109.54
399.128	15743.81
399.491	15342.07
399.854	15174.95
400.218	15097.08
400.581	14846.88
400.944	14627.86
401.307	14185.73
401.67	14199.46
402.033	13979.6
402.396	13775.54
402.759	13569.78
403.122	13624.37
403.485	13533.22
403.847	13398.17
404.21	13472.6
404.573	13591.57
404.936	13471.59
405.298	13061.3
405.661	12665.01
406.023	12274.18
406.386	12078.95
406.749	11964.59
407.111	11972.68
407.473	12293.34
407.836	12502.93
408.198	12648.65
408.561	12641.61
408.923	12779.68
409.285	12714.05
409.647	12663.75
410.009	12489.34
410.372	12583.99
410.734	12637.58
411.096	12657.21
411.458	12867.9
411.82	12980.2
412.182	13221.4
412.544	13277.84
412.906	13383.64
413.267	13292.13
413.629	13197.82
413.991	12907.85
414.353	13001.29
414.714	12612.17
415.076	12575.93
415.438	12604.37
415.799	12566.87
416.161	12260.31
416.522	12171.3
416.884	11938.83
417.245	11881.24
417.607	11641.55
417.968	11575.75
418.329	11445.85
418.691	11461.31
419.052	11274.52
419.413	11294.3
419.774	11215.17
420.135	11600.56
420.497	11849.15
420.858	12105.96
421.219	12067.6
421.58	11688.35
421.941	11267.17
422.302	10915.03
422.662	10863.68
423.023	10661.4
423.384	10667.77
423.745	10845.11
424.106	11008.03
424.466	11172.04
424.827	10964.84
425.187	10776.95
425.548	10694.75
425.909	10620.15
426.269	10931.8
426.63	11133.72
426.99	11543.6
427.35	11384.29
427.711	11594.74
428.071	11890.08
428.431	12310.22
428.792	13376.62
429.152	14230.92
429.512	14318.8
429.872	14200.46
430.232	13830.82
430.592	13058.79
430.952	12357.6
431.312	11774.58
431.672	11321.17
432.032	11258.8
432.392	11563.1
432.752	12724.36
433.111	13315.95
433.471	12966.89
433.831	11804.16
434.19	11635.73
434.55	11574.99
434.91	11178.63
435.269	11334.86
435.629	11302.41
435.988	11312.3
436.348	11004.22
436.707	10560.04
437.066	10420.09
437.426	10481.54
437.785	10571.5
438.144	10553.16
438.503	10356.07
438.862	10150.28
439.222	10100.96
439.581	9988.96
439.94	10283.34
440.299	11112.9
440.658	11755.87
441.017	11931.26
441.376	11793.8
441.734	11626.88
442.093	11619.79
442.452	11968.89
442.811	12316.27
443.169	12343.99
443.528	12151.87
443.887	12063.81
444.245	12208.12
444.604	12016.36
444.962	11905.24
445.321	12032.77
445.679	12268.63
446.038	12393.38
446.396	12209.88
446.754	11846.12
447.112	11882.25
447.471	11844.09
447.829	11706.56
448.187	11781.92
448.545	11853.7
448.903	11742.47
449.261	11700.24
449.619	11527.15
449.977	11372.63
450.335	11234.45
450.693	11111.89
451.051	11002.18
451.409	10909.94
451.766	10749.22
452.124	10454.77
452.482	10156.67
452.839	9977.45
453.197	9886.08
453.555	9679.85
453.912	9676
454.27	9851.01
454.627	10052.64
454.984	10027.07
455.342	9699.59
455.699	9449.92
456.056	9458.4
456.414	9683.95
456.771	9959.03
457.128	10041.13
457.485	10101.98
457.842	9952.12
458.199	10047.78
458.556	10320.35
458.913	10258.57
459.27	10544.24
459.627	10389.49
459.984	10413.97
460.341	10624.23
460.697	10452.73
461.054	9933.95
461.411	9621.63
461.767	9469.18
462.124	9548.25
462.481	9919.62
462.837	10161.26
463.194	10797.04
463.55	10727.58
463.907	11375.42
464.263	11821.85
464.619	12303.17
464.976	12752.28
465.332	12826.94
465.688	12192.99
466.044	11414.19
466.4	11084.21
466.756	10926.72
467.112	10975.51
467.468	11052.73
467.824	10860.62
468.18	10543.22
468.536	10496.84
468.892	10244.02
469.248	10128.56
469.604	9940.09
469.959	10025.79
470.315	10012.49
470.671	10001.49
471.026	10189.11
471.382	10287.68
471.737	10485.11
472.093	10628.3
472.448	10961.53
472.804	11262.85
473.159	11356.41
473.514	11278.58
473.87	11453.2
474.225	12044.88
474.58	12488.58
474.935	12408.75
475.29	11943.38
475.645	11945.4
476	11732.36
476.355	11597.77
476.71	11478.53
477.065	12024.43
477.42	12498.15
477.775	12458.87
478.13	12329.88
478.485	12421.09
478.839	12659.97
479.194	13387.65
479.549	13880.59
479.903	13847.58
480.258	13581.3
480.612	13999.85
480.967	14697.4
481.321	14922.34
481.675	14347
482.03	13941.1
482.384	13829.82
482.738	14143.27
483.093	14489.96
483.447	15084.39
483.801	16209.47
484.155	16680.41
484.509	20340.39
484.863	45945.95
485.217	58826.77
485.571	58237.46
485.925	36429.18
486.279	26309.48
486.632	22529.06
486.986	19520.56
487.34	16979.1
487.694	16068.87
488.047	15780.05
488.401	15870.4
488.754	15704.33
489.108	15287.62
489.461	15085.88
489.815	14790.09
490.168	15213.26
490.522	15232.16
490.875	15137.64
491.228	15030.88
491.581	15202.07
491.935	15202.07
492.288	14981.35
492.641	15262.01
492.994	15133.66
493.347	15499.16
493.7	15568.97
494.053	15487.97
494.406	14962.67
494.759	14406.14
495.111	15023.17
495.464	16407.24
495.817	17136.39
496.169	16275.65
496.522	14882
496.875	13787.55
497.227	13509.92
497.58	13385.89
497.932	13741.26
498.285	13776.54
498.637	14400.15
498.989	14852.61
499.342	14725.56
499.694	14010.34
500.046	13673.19
500.398	14296.08
500.751	14630.35
501.103	14602.68
501.455	14625.86
501.807	14545.58
502.159	14634.34
502.511	14661.26
502.862	14627.86
503.214	14265.13
503.566	13666.93
503.918	13347.04
504.27	13466.83
504.621	13492.64
504.973	13310.68
505.324	13540.48
505.676	14020.34
506.027	14137.27
506.379	13261.03
506.73	12810.6
507.082	13159.94
507.433	13592.57
507.784	13998.1
508.136	13582.81
508.487	13334.75
508.838	13081.64
509.189	13120.54
509.54	13503.66
509.891	13365.09
510.242	13345.78
510.593	13209.36
510.944	13048.25
511.295	12694.69
511.646	12396.4
511.996	12568.63
512.347	12807.58
512.698	12833.47
513.049	12639.09
513.399	12529.12
513.75	12711.29
514.1	12299.89
514.451	11773.32
514.801	11728.06
515.152	12120.34
515.502	12421.59
515.852	12658.97
516.202	12589.02
516.553	12347.27
516.903	11994.39
517.253	11622.32
517.603	11571.2
517.953	11613.21
518.303	12184.66
518.653	12408.24
519.003	12179.37
519.353	11483.09
519.703	10894.95
520.052	10710.02
520.402	10869.78
520.752	11118.99
521.102	10803.66
521.451	10594.68
521.801	10670.82
522.15	10831.89
522.5	10903.84
522.849	10915.79
523.199	11167.47
523.548	11317.12
523.897	11117.98
524.246	10767.53
524.596	10474.66
524.945	10414.48
525.294	10501.17
525.643	10471.35
525.992	10434.63
526.341	10569.97
526.69	10422.13
527.039	10247.85
527.388	9999.7
527.737	10553.92
528.086	11417.48
528.434	11925.19
528.783	11426.35
529.132	10922.14
529.48	10603.09
529.829	10545.51
530.177	10360.41
530.526	10172.51
530.874	10405.81
531.223	10485.62
531.571	10323.92
531.919	10542.2
532.268	11122.55
532.616	11989.09
532.964	12417.06
533.312	12481.28
533.66	12452.07
534.008	12468.44
534.356	12542.71
534.704	12458.36
535.052	12112.52
535.4	11675.7
535.748	11118.74
536.095	10545
536.443	10580.42
536.791	10946.29
537.139	11496
537.486	12204.08
537.834	12353.57
538.181	12467.43
538.529	12472.97
538.876	12469.7
539.223	12176.34
539.571	11791.02
539.918	11734.63
540.265	12145.06
540.613	12622.49
540.96	12433.93
541.307	12270.4
541.654	12238.13
542.001	12277.96
542.348	12245.94
542.695	12169.53
543.042	12629.03
543.388	12948.55
543.735	12993.76
544.082	13148.39
544.429	12985.72
544.775	12597.83
545.122	11914.33
545.469	11347.28
545.815	11443.32
546.162	11613.97
546.508	12071.89
546.854	12935.99
547.201	13997.85
547.547	14255.64
547.893	13721.49
548.24	12476.75
548.586	11217.71
548.932	10973.98
549.278	10831.89
549.624	11036.98
549.97	10820.45
550.316	10382.09
550.662	10140.57
551.008	11062.12
551.353	12455.09
551.699	13025.9
552.045	12521.31
552.391	11894.12
552.736	11659.26
553.082	11617.01
553.427	11280.61
553.773	10573.28
554.118	10268.53
554.464	10910.2
554.809	11697.71
555.154	12148.85
555.5	12241.91
555.845	11286.95
556.19	10752.01
556.535	10270.57
556.88	10462.93
557.225	10500.4
557.57	10232.02
557.915	9658.82
558.26	9422.95
558.605	9411.65
558.95	9695.49
559.295	10776.18
559.639	11648.64
559.984	12570.65
560.329	12804.82
560.673	12935.99
561.018	12215.43
561.362	11574.24
561.707	11040.28
562.051	11166.45
562.395	11432.43
562.74	12080.97
563.084	12390.1
563.428	12993.01
563.772	12886.5
564.117	13069.33
564.461	13181.52
564.805	12892.53
565.149	13081.64
565.493	13157.93
565.836	13725.74
566.18	14083.81
566.524	16095.16
566.868	17177.43
567.212	17889.12
567.555	18107.76
567.899	20041.87
568.242	21852.5
568.586	24728.98
568.929	28267.07
569.273	32001.7
569.616	32352.55
569.96	33520.33
570.303	35816.28
570.646	36820.08
570.989	38858.28
571.333	38729.18
571.676	36344.15
572.019	30803.98
572.362	33929.8
572.705	39117.78
573.048	43933.88
573.391	46863.87
573.733	48465.81
574.076	49697.51
574.419	47700.96
574.762	42910.82
575.104	37632.48
575.447	37442.43
575.789	41916.47
576.132	48017.01
576.474	48666.78
576.817	56346.99
577.159	63289.06
577.501	63804.23
577.844	56617.02
578.186	45267.05
578.528	40614.4
578.87	40488.2
579.212	42443.74
579.554	46096.28
579.896	45164.63
580.238	49475.82
580.58	64386.44
580.922	68769
581.264	68769
581.606	66489.43
581.947	59135.51
582.289	48531.63
582.631	39087.78
582.972	33844.2
583.314	34214.53
583.655	35828.14
583.997	42515.59
584.338	49801.23
584.679	54341.99
585.021	52537.98
585.362	45659.89
585.703	39489.95
586.044	37920.83
586.385	41928.93
586.726	46221.89
587.067	43932.62
587.408	39065.72
587.749	35750.56
588.09	32725.92
588.431	29457.03
588.772	26593.02
