Data from FLMS007011_11-34-33-523.txt Node
Date: Thu Apr 21 11:34:33 MDT 2016
User: lab_user
Spectrometer: FLMS00701
Autoset integration time: false
Trigger mode: 0
Integration Time (sec): 5.000000E-3
Scans to average: 10
Electric dark correction enabled: true
Nonlinearity correction enabled: true
Boxcar width: 0
XAxis mode: Wavelengths
Stop averaging: false
Number of Pixels in Spectrum: 2048
>>>>>Begin Spectral Data<<<<<
178.41	24.9
178.791	24.9
179.172	24.9
179.553	-45.39
179.934	-36.24
180.316	-71.7
180.697	-70.27
181.078	-58.83
181.459	-76.27
181.84	-31.1
182.221	-42.82
182.602	-21.38
182.983	28.04
183.364	42.03
183.744	52.59
184.125	40.32
184.506	118.79
184.887	97.11
185.268	134.19
185.648	162.13
186.029	172.96
186.41	205.73
186.791	237.62
187.171	244.74
187.552	308.2
187.932	371.03
188.313	383.25
188.694	430.12
189.074	441.19
189.455	432.11
189.835	460.78
190.216	486.04
190.596	480.08
190.977	497.67
191.357	522.91
191.737	521.21
192.118	525.18
192.498	553.53
192.878	565.43
193.258	553.81
193.639	551.83
194.019	554.38
194.399	596.89
194.779	601.13
195.159	554.1
195.54	567.98
195.92	604.82
196.3	578.47
196.68	604.53
197.06	580.17
197.44	572.24
197.82	594.62
198.2	604.25
198.58	593.49
198.959	614.16
199.339	597.45
199.719	599.15
200.099	592.64
200.479	620.96
200.858	601.42
201.238	618.98
201.618	593.77
201.998	623.51
202.377	605.1
202.757	622.38
203.136	611.05
203.516	624.36
203.896	620.11
204.275	633.42
204.655	642.76
205.034	639.08
205.414	654.37
205.793	634.27
206.172	629.46
206.552	656.63
206.931	704.17
207.31	678.71
207.69	661.44
208.069	668.24
208.448	710.11
208.827	688.89
209.207	713.5
209.586	731.88
209.965	757.04
210.344	765.52
210.723	749.98
211.102	763.54
211.481	788.69
211.86	797.17
212.239	807.34
212.618	835.3
212.997	813.27
213.376	839.81
213.755	859.29
214.134	866.06
214.513	867.76
214.891	903.31
215.27	930.1
215.649	959.7
216.028	968.44
216.406	1002.25
216.785	990.98
217.164	1030.97
217.542	1058.85
217.921	1095.15
218.3	1103.58
218.678	1117.93
219.057	1167.41
219.435	1194.11
219.814	1198.88
220.192	1260.38
220.57	1249.71
220.949	1305.28
221.327	1358.55
221.705	1375.93
222.084	1413.48
222.462	1421.88
222.84	1456.04
223.218	1476.47
223.597	1569.61
223.975	1593.92
224.353	1648.39
224.731	1646.43
225.109	1712.58
225.487	1794.28
225.865	1846.37
226.243	1885.62
226.621	1920.13
226.999	1978.53
227.377	2043.27
227.755	2074.1
228.133	2166.21
228.511	2213.62
228.889	2232.74
229.266	2368.1
229.644	2399.9
230.022	2437.48
230.4	2499.91
230.777	2590.41
231.155	2649.4
231.533	2720.19
231.91	2787.61
232.288	2860.47
232.665	2918.71
233.043	2990.08
233.42	3027.39
233.798	3059.74
234.175	3174.79
234.553	3267.81
234.93	3342.41
235.307	3396.21
235.685	3492.24
236.062	3563.37
236.439	3598.78
236.816	3681.52
237.194	3747.32
237.571	3863.3
237.948	3908.89
238.325	3951.47
238.702	4028.17
239.079	4135.11
239.456	4170.81
239.833	4244.07
240.21	4368
240.587	4331.03
240.964	4522.74
241.341	4546.16
241.718	4672.35
242.095	4673.43
242.472	4790.57
242.849	4854.46
243.225	4940.01
243.602	5031.36
243.979	5044.22
244.356	5120.76
244.732	5226.9
245.109	5295.81
245.486	5387.34
245.862	5394.54
246.239	5545.91
246.615	5568.01
246.992	5623.89
247.368	5695.96
247.745	5735.04
248.121	5846.05
248.497	5942.61
248.874	6006.49
249.25	6055.76
249.626	6181.74
250.003	6189.15
250.379	6330.54
250.755	6329.75
251.131	6402.35
251.507	6441.13
251.884	6554.76
252.26	6561.09
252.636	6754.03
253.012	6768.76
253.388	6880.71
253.764	6922.46
254.14	7023.23
254.516	6999.1
254.892	7079.87
255.268	7148.27
255.643	7211.91
256.019	7281.01
256.395	7280.48
256.771	7313.71
257.147	7456.43
257.522	7539.46
257.898	7538.94
258.274	7549.64
258.649	7580.18
259.025	7727.5
259.4	7746.52
259.776	7812.67
260.151	7794.44
260.527	7881.65
260.902	7988.8
261.278	8033.25
261.653	8023.89
262.028	8072.74
262.404	8087.28
262.779	8181.79
263.154	8223.05
263.53	8295.4
263.905	8229.79
264.28	8423.15
264.655	8452.42
265.03	8377.3
265.405	8407.35
265.781	8478.82
266.156	8534.98
266.531	8582.32
266.906	8554.64
267.281	8662.99
267.655	8593.18
268.03	8621.37
268.405	8690.38
268.78	8750.83
269.155	8768.91
269.53	8742.83
269.904	8816.93
270.279	8788.54
270.654	8870.87
271.029	8829.07
271.403	8974.3
271.778	8984.87
272.152	8994.4
272.527	8975.59
272.901	9073.51
273.276	9113.95
273.65	9070.68
274.025	9133.78
274.399	9165.44
274.774	9223.86
275.148	9341.9
275.522	9271.96
275.897	9314.91
276.271	9350.38
276.645	9395.1
277.019	9414.11
277.393	9482.69
277.768	9507.34
278.142	9484.49
278.516	9526.59
278.89	9635.9
279.264	9617.17
279.638	9666.67
280.012	9682.57
280.386	9640.26
280.76	9724.87
281.133	9767.66
281.507	9863.97
281.881	9944.08
282.255	9981.18
282.629	9945.88
283.002	9931.29
283.376	10083.73
283.75	10024.16
284.123	10104.44
284.497	9996.28
284.87	10138.42
285.244	10132.04
285.618	10263.58
285.991	10193.61
286.364	10208.17
286.738	10265.11
287.111	10357.5
287.485	10293.19
287.858	10253.11
288.231	10326.63
288.605	10341.94
288.978	10337.6
289.351	10394.49
289.724	10402.4
290.097	10332.24
290.47	10420
290.843	10382.76
291.217	10421.02
291.59	10403.42
291.963	10471.5
292.336	10457.99
292.708	10419.49
293.081	10462.58
293.454	10571.4
293.827	10559.68
294.2	10530.12
294.573	10531.14
294.945	10536.75
295.318	10530.12
295.691	10593.56
296.064	10582.36
296.436	10549.74
296.809	10678.62
297.181	10690.33
297.554	10588.72
297.926	10612.41
298.299	10637.88
298.671	10803.05
299.044	10762.6
299.416	10741.99
299.788	10864.85
300.161	10786.26
300.533	10762.09
300.905	10992.94
301.278	11005.13
301.65	11043.23
302.022	11002.85
302.394	10968.55
302.766	11072.94
303.138	11060.76
303.51	11097.32
303.882	11114.83
304.254	11161.53
304.626	11217.86
304.998	11283.55
305.37	11174.98
305.742	11248.81
306.114	11293.19
306.485	11390.52
306.857	11397.11
307.229	11306.37
307.601	11485.01
307.972	11315.24
308.344	11402.43
308.716	11463.23
309.087	11466.53
309.459	11472.86
309.83	11467.54
310.202	11431.32
310.573	11577.93
310.945	11529.58
311.316	11480.2
311.687	11586.29
312.059	11451.07
312.43	11512.87
312.801	11473.87
313.172	11496.16
313.544	11527.05
313.915	11608.81
314.286	11549.08
314.657	11487.8
315.028	11470.33
315.399	11441.7
315.77	11520.97
316.141	11409.02
316.512	11490.08
316.883	11353.01
317.254	11379.12
317.625	11246.02
317.996	11437.9
318.366	11324.88
318.737	11379.12
319.108	11296.99
319.478	11224.96
319.849	11169.15
320.22	11216.59
320.59	11222.93
320.961	11051.61
321.331	11164.83
321.702	10983.03
322.072	10956.86
322.443	10901.46
322.813	10871.46
323.184	10786.52
323.554	10765.91
323.924	10640.93
324.295	10608.08
324.665	10552.29
325.035	10570.64
325.405	10443.46
325.775	10309.02
326.145	10290.64
326.515	10196.93
326.886	10145.58
327.256	10049.22
327.626	9903.39
327.995	9724.61
328.365	9700.77
328.735	9536.86
329.105	9309.51
329.475	9174.45
329.845	8819.52
330.215	8802.48
330.584	8883
330.954	9313.62
331.324	9738.45
331.693	10135.87
332.063	10344.49
332.432	10467.17
332.802	10141.49
333.171	9746.14
333.541	9298.97
333.91	9179.08
334.28	8954.44
334.649	8843.52
335.018	8762.97
335.388	8717.25
335.757	8608.96
336.126	8531.1
336.495	8467.95
336.865	8350.1
337.234	8219.67
337.603	8203.59
337.972	8117.41
338.341	8044.94
338.71	8030.65
339.079	7965.4
339.448	7908.45
339.817	7914.95
340.186	7739.22
340.554	7778.82
340.923	7718.12
341.292	7728.02
341.661	7668.85
342.029	7636.52
342.398	7657.64
342.767	7545.47
343.135	7560.6
343.504	7541.55
343.872	7619.57
344.241	7598.96
344.609	7582
344.978	7591.92
345.346	7765.53
345.715	7713.42
346.083	7701.18
346.451	7774.65
346.82	7812.41
347.188	7908.97
347.556	7963.58
347.924	8028.57
348.292	8087.8
348.66	8199.7
349.028	8320.55
349.396	8308.89
349.764	8485.81
350.132	8542.49
350.5	8696.33
350.868	8805.58
351.236	8955.22
351.604	9073.25
351.972	9223.35
352.34	9280.19
352.707	9401.01
353.075	9585.62
353.443	9694.11
353.81	9812.75
354.178	10025.43
354.545	10183.39
354.913	10345.51
355.28	10417.96
355.648	10681.93
356.015	10822.64
356.383	11090.72
356.75	11027.49
357.117	11303.07
357.485	11406.23
357.852	11555.15
358.219	11757.8
358.586	11858.4
358.954	12026.61
359.321	12143.45
359.688	12266.77
360.055	12410.41
360.422	12577.85
360.789	12667.93
361.156	12889.67
361.523	12951.97
361.89	13048.15
362.256	13169.12
362.623	13265.2
362.99	13381.03
363.357	13527.61
363.724	13626.78
364.09	13702.37
364.457	13819.22
364.823	14060.98
365.19	14177.64
365.557	14252.55
365.923	14354.14
366.29	14309.47
366.656	14529.77
367.022	14674.37
367.389	14776.54
367.755	14622.77
368.121	14708.02
368.488	14899.33
368.854	14868.2
369.22	14817.89
369.586	14821.13
369.952	14888.13
370.318	14738.17
370.684	14885.89
371.051	14914.52
371.416	14940.67
371.782	15052.44
372.148	15087.78
372.514	14991.7
372.88	15106.94
373.246	15140.03
373.612	15366.59
373.977	15340.24
374.343	15565.4
374.709	15701.25
375.074	15534.59
375.44	15565.64
375.806	15473.71
376.171	15580.55
376.537	15865.59
376.902	15691.82
377.268	15936.56
377.633	16032.56
377.998	16249.28
378.364	16408.38
378.729	16473.78
379.094	16456.94
379.459	16094.32
379.825	16066.05
380.19	16130.77
380.555	15869.06
380.92	15704.23
381.285	15742.72
381.65	15929.11
382.015	15905.54
382.38	15985.18
382.745	15705.72
383.11	15681.63
383.474	15738.99
383.839	15732.29
384.204	15693.8
384.569	15705.97
384.933	15688.59
385.298	15582.78
385.663	15679.4
386.027	15752.9
386.392	15918.69
386.756	16054.89
387.121	16164
387.485	16446.28
387.849	16500.78
388.214	16222.51
388.578	16159.04
388.942	15919.44
389.307	15953.18
389.671	15950.2
390.035	16060.1
390.399	16114.66
390.763	16327.1
391.127	16499.05
391.492	17094.5
391.856	17322.69
392.219	17760.91
392.583	17511.96
392.947	16993.6
393.311	16540.41
393.675	16506.72
394.039	16284.23
394.403	16343.21
394.766	16104.74
395.13	16081.92
395.494	16197.72
395.857	16270.84
396.221	16427.21
396.584	16738.98
396.948	17008.19
397.311	17608.05
397.675	17852.99
398.038	17822.63
398.401	17389.91
398.765	16875.84
399.128	16498.3
399.491	16224.24
399.854	16082.91
400.218	16181.11
400.581	15946.48
400.944	15789.64
401.307	15497.32
401.67	15539.06
402.033	15474.21
402.396	15542.54
402.759	15489.87
403.122	15580.8
403.485	15654.57
403.847	15858.89
404.21	16127.55
404.573	16277.78
404.936	16349.41
405.298	16029.59
405.661	15617.31
406.023	15174.11
406.386	15045.97
406.749	14903.82
407.111	14880.91
407.473	15332.28
407.836	15541.79
408.198	15748.67
408.561	15691.07
408.923	15569.37
409.285	15574.09
409.647	15372.31
410.009	14979.51
410.372	14987.97
410.734	14956.11
411.096	14954.86
411.458	15069.86
411.82	15191.52
412.182	15432.96
412.544	15405.37
412.906	15430.22
413.267	15406.61
413.629	15095.99
413.991	15005.4
414.353	15052.94
414.714	14706.77
415.076	14711.5
415.438	14744.65
415.799	14839.31
416.161	14565.43
416.522	14433.74
416.884	14409.04
417.245	14499.34
417.607	14457.44
417.968	14465.67
418.329	14596.6
418.691	14575.65
419.052	14566.68
419.413	14822.87
419.774	14898.84
420.135	15549
420.497	16057.12
420.858	16659.52
421.219	16555.02
421.58	16203.67
421.941	15753.64
422.302	15258.68
422.662	15175.85
423.023	14793.23
423.384	14774.79
423.745	14965.57
424.106	14993.95
424.466	15191.77
424.827	14815.65
425.187	14297.24
425.548	14117.44
425.909	13904
426.269	14198.61
426.63	14263.53
426.99	14580.14
427.35	14451.7
427.711	14585.13
428.071	14784.01
428.431	15302.44
428.792	16544.12
429.152	17530
429.512	17606.32
429.872	17393.12
430.232	16938.18
430.592	16037.77
430.952	15034.77
431.312	14517.05
431.672	13974
432.032	14015.24
432.392	14351.65
432.752	15830.1
433.111	16716.21
433.471	16451.98
433.831	15127.09
434.19	15082.3
434.55	15146.99
434.91	14718.48
435.269	14970.05
435.629	15187.3
435.988	15332.28
436.348	14969.55
436.707	14478.89
437.066	14502.34
437.426	14727.2
437.785	14896.35
438.144	14947.14
438.503	14698.05
438.862	14503.09
439.222	14418.77
439.581	14119.69
439.94	14340.92
440.299	15477.19
440.658	16367
441.017	16543.38
441.376	16234.65
441.734	15819.42
442.093	15637.43
442.452	15900.83
442.811	16262.42
443.169	16038.27
443.528	15757.61
443.887	15473.96
444.245	15419.29
444.604	15134.8
444.962	14944.9
445.321	14889.62
445.679	15098.23
446.038	15235.55
446.396	14908.05
446.754	14407.29
447.112	14368.87
447.471	14125.68
447.829	13974.25
448.187	14110.44
448.545	14226.83
448.903	14026.49
449.261	14071.72
449.619	13896.25
449.977	13753.42
450.335	13464.23
450.693	13373.51
451.051	13353.71
451.409	13228.83
451.766	13290.53
452.124	12872.83
452.482	12590.43
452.839	12483.45
453.197	12320.71
453.555	12249.12
453.912	12228.19
454.27	12596.47
454.627	13022.54
454.984	12958.75
455.342	12586.66
455.699	12372.37
456.056	12374.13
456.414	12709.43
456.771	13030.07
457.128	13170.13
457.485	13325.63
457.842	13259.68
458.199	13135.75
458.556	13493.79
458.913	13448.7
459.27	13641.3
459.627	13321.62
459.984	13337.41
460.341	13600.24
460.697	13149.8
461.054	12478.16
461.411	11971.06
461.767	11616.66
462.124	11657.14
462.481	11979.4
462.837	12304.58
463.194	12928.11
463.55	12736.08
463.907	13361.98
464.263	13869.24
464.619	14336.17
464.976	14789.74
465.332	14824.12
465.688	14127.43
466.044	13001.45
466.4	12698.36
466.756	12426.28
467.112	12531.79
467.468	12531.28
467.824	12257.44
468.18	11973.84
468.536	11824.54
468.892	11549.58
469.248	11416.87
469.604	11291.41
469.959	11290.4
470.315	11269.6
470.671	11303.83
471.026	11492.36
471.382	11657.64
471.737	11928.63
472.093	12183.05
472.448	12659.88
472.804	13003.2
473.159	13218.05
473.514	13133.24
473.87	13507.57
474.225	14162.4
474.58	14906.06
474.935	14801.7
475.29	14443.22
475.645	14255.05
476	14111.44
476.355	13915.25
476.71	13819.72
477.065	14682.6
477.42	15205.45
477.775	15105.19
478.13	14892.61
478.485	15088.27
478.839	15391.2
479.194	16174.41
479.549	16658.28
479.903	16742.94
480.258	16319.92
480.612	16745.91
480.967	17564.33
481.321	17616.94
481.675	16966.63
482.03	16394.26
482.384	16142.92
482.738	16452.72
483.093	16646.89
483.447	17366.19
483.801	18487.7
484.155	19005.91
484.509	22583.94
484.863	50991.75
485.217	64359.29
485.571	64169.25
485.925	41338.79
486.279	29634.98
486.632	25077.57
486.986	21471.05
487.34	18594.93
487.694	17488.49
488.047	17129.87
488.401	17229.5
488.754	16968.86
489.108	16440.83
489.461	16176.89
489.815	15878.74
490.168	16285.72
490.522	16405.41
490.875	16278.03
491.228	16137.72
491.581	16294.89
491.935	16268.86
492.288	16129.04
492.641	16307.28
492.994	16362.79
493.347	16803.33
493.7	16788.23
494.053	16727.1
494.406	16317.93
494.759	15573.84
495.111	16446.28
495.464	17850.52
495.817	18832.49
496.169	17946.78
496.522	16457.93
496.875	15289.02
497.227	15032.78
497.58	14914.28
497.932	15350.18
498.285	15458.55
498.637	16237.38
498.989	16791.95
499.342	16615.94
499.694	15951.44
500.046	15549.74
500.398	16213.58
500.751	16686.01
501.103	16655.06
501.455	16787.74
501.807	16629.56
502.159	16696.16
502.511	16730.81
502.862	16676.85
503.214	16144.91
503.566	15594.21
503.918	15156.95
504.27	15191.03
504.621	15271.61
504.973	15064.13
505.324	15180.08
505.676	15674.68
506.027	15858.39
506.379	14725.46
506.73	14224.83
507.082	14339.42
507.433	14865.71
507.784	15185.55
508.136	14770.81
508.487	14525.03
508.838	14179.88
509.189	14200.11
509.54	14576.4
509.891	14288.5
510.242	14266.53
510.593	14108.45
510.944	13848.48
511.295	13404.59
511.646	13143.03
511.996	13256.42
512.347	13430.15
512.698	13461.98
513.049	13255.67
513.399	13126.72
513.75	13169.88
514.1	12819.8
514.451	12300.04
514.801	12244.33
515.152	12562.5
515.502	12804.47
515.852	13156.83
516.202	13183.17
516.553	12869.31
516.903	12379.93
517.253	12024.84
517.603	12042.76
517.953	12058.16
518.303	12737.09
518.653	13032.58
519.003	12843.43
519.353	12044.53
519.703	11310.93
520.052	11263.26
520.402	11346.93
520.752	11671.31
521.102	11450.82
521.451	11237.65
521.801	11290.14
522.15	11490.59
522.5	11658.4
522.849	11569.58
523.199	11949.6
523.548	12027.37
523.897	11884.42
524.246	11563.76
524.596	11228.77
524.945	11260.47
525.294	11334.76
525.643	11392.04
525.992	11368.47
526.341	11459.43
526.69	11408.26
527.039	11179.3
527.388	10965.5
527.737	11541.99
528.086	12478.16
528.434	13115.42
528.783	12568.28
529.132	12126.04
529.48	11701.15
529.829	11473.36
530.177	11451.07
530.526	11187.92
530.874	11375.57
531.223	11369.74
531.571	11316.26
531.919	11380.39
532.268	12055.13
532.616	13011.49
532.964	13452.71
533.312	13471.75
533.66	13331.4
534.008	13321.37
534.356	13378.53
534.704	13221.56
535.052	12862.28
535.4	12356.24
535.748	11684.97
536.095	11122.7
536.443	11067.87
536.791	11436.89
537.139	12097.03
537.486	12599.74
537.834	12894.69
538.181	12956.49
538.529	12843.43
538.876	12889.42
539.223	12559.73
539.571	12128.06
539.918	11984.95
540.265	12497.8
540.613	12873.08
540.96	12682.52
541.307	12631.95
541.654	12501.83
542.001	12610.56
542.348	12670.94
542.695	12605.28
543.042	12908.76
543.388	13139.51
543.735	13312.09
544.082	13383.04
544.429	13341.93
544.775	12754.44
545.122	12154.8
545.469	11681.42
545.815	11655.87
546.162	11786.11
546.508	12311.64
546.854	13135.25
547.201	14143.92
547.547	14581.14
547.893	14021.74
548.24	12789.89
548.586	11607.8
548.932	11207.21
549.278	11100.36
549.624	11325.64
549.97	11097.57
550.316	10621.58
550.662	10496.48
551.008	11320.31
551.353	12746.39
551.699	13585.96
552.045	13052.67
552.391	12299.04
552.736	12180.53
553.082	12066.99
553.427	11833.89
553.773	11065.33
554.118	10829.5
554.464	11483.75
554.809	12412.68
555.154	12885.14
555.5	12851.47
555.845	11982.93
556.19	11329.44
556.535	10835.86
556.88	11134.13
557.225	11297.75
557.57	10922.55
557.915	10358.52
558.26	10026.71
558.605	10021.09
558.95	10447.28
559.295	11579.45
559.639	12492.76
559.984	13587.72
560.329	13667.33
560.673	13757.18
561.018	13066.73
561.362	12295.51
561.707	11710.26
562.051	11869.26
562.395	12083.4
562.74	12791.65
563.084	12948.96
563.428	13686.6
563.772	13512.08
564.117	13663.83
564.461	13897.5
564.805	13608.75
565.149	13760.43
565.493	13731.15
565.836	14242.06
566.18	14466.17
566.524	16570.87
566.868	17737.45
567.212	18423.85
567.555	18782.23
567.899	20543.34
568.242	22283.01
568.586	25304.81
568.929	28820.92
569.273	32448.31
569.616	32974.8
569.96	33945.49
570.303	36316.12
570.646	37279.29
570.989	39438.52
571.333	39235.94
571.676	36801.68
572.019	31129.06
572.362	33952.15
572.705	39356.19
573.048	43965.88
573.391	46965.08
573.733	48526.86
574.076	49757.15
574.419	47729.65
574.762	42858.02
575.104	37735.09
575.447	37266.67
575.789	42102.52
576.132	47868.03
576.474	48574.05
576.817	56386.97
577.159	63113.27
577.501	63606.44
577.844	56773.2
578.186	45218.26
578.528	40856.85
578.87	40470.97
579.212	42422.44
579.554	45980.82
579.896	45362.62
580.238	49422.76
580.58	64317.58
580.922	68777.98
581.264	68777.98
581.606	66727.19
581.947	59349.4
582.289	48845.73
582.631	39414.71
582.972	34083.17
583.314	34573.03
583.655	36302.03
583.997	43096.89
584.338	50434.3
584.679	55208.26
585.021	53503.01
585.362	46572.55
585.703	40355.72
586.044	38686.97
586.385	43125.39
586.726	47532.94
587.067	45278.56
587.408	40207.48
587.749	36802.43
