Data from FLMS007011_11-31-43-274.txt Node
Date: Thu Apr 21 11:31:43 MDT 2016
User: lab_user
Spectrometer: FLMS00701
Autoset integration time: false
Trigger mode: 0
Integration Time (sec): 5.000000E-3
Scans to average: 10
Electric dark correction enabled: true
Nonlinearity correction enabled: true
Boxcar width: 0
XAxis mode: Wavelengths
Stop averaging: false
Number of Pixels in Spectrum: 2048
>>>>>Begin Spectral Data<<<<<
178.41	33.91
178.791	33.91
179.172	33.91
179.553	-27.8
179.934	-50.09
180.316	-60.1
180.697	-36.37
181.078	-72.11
181.459	-75.54
181.84	-45.8
182.221	-51.52
182.602	-24.94
182.983	-7.79
183.364	23.34
183.744	47.9
184.125	78.44
184.506	86.43
184.887	113.82
185.268	140.34
185.648	188.79
186.029	177.4
186.41	204.18
186.791	196.49
187.171	269.66
187.552	328.27
187.932	370.34
188.313	317.18
188.694	400.46
189.074	407.27
189.455	396.76
189.835	422.61
190.216	449.58
190.596	452.71
190.977	454.12
191.357	475.69
191.737	483.92
192.118	510.31
192.498	506.05
192.878	517.68
193.258	497.26
193.639	512.01
194.019	534.13
194.399	545.47
194.779	558.22
195.159	584.58
195.54	559.36
195.92	528.74
196.3	545.47
196.68	561.91
197.06	566.73
197.44	545.75
197.82	570.69
198.2	553.69
198.58	543.2
198.959	560.77
199.339	544.9
199.719	579.19
200.099	551.42
200.479	552.55
200.858	542.06
201.238	556.81
201.618	562.19
201.998	526.75
202.377	548.59
202.757	593.93
203.136	575.51
203.516	540.08
203.896	567.01
204.275	553.12
204.655	542.92
205.034	585.71
205.414	585.99
205.793	620.27
206.172	598.18
206.552	599.59
206.931	573.81
207.31	576.64
207.69	591.94
208.069	587.41
208.448	606.11
208.827	637.26
209.207	642.92
209.586	670.09
209.965	625.65
210.344	641.5
210.723	645.18
211.102	627.35
211.481	636.41
211.86	666.98
212.239	696.69
212.618	734.59
212.997	746.74
213.376	734.3
213.755	711.11
214.134	717.62
214.513	664.72
214.891	694.14
215.27	706.59
215.649	786.87
216.028	799.02
216.406	803.26
216.785	877.79
217.164	824.72
217.542	846.18
217.921	789.13
218.3	809.75
218.678	765.11
219.057	821.9
219.435	854.08
219.814	907.7
220.192	981.27
220.57	1008.32
220.949	1031.41
221.327	984.37
221.705	948.02
222.084	890.49
222.462	867.35
222.84	912.21
223.218	959.01
223.597	1016.77
223.975	1126.24
224.353	1176
224.731	1242.57
225.109	1234.71
225.487	1202.41
225.865	1167.29
226.243	1083.49
226.621	1057.88
226.999	1069.13
227.377	1136.36
227.755	1226
228.133	1332.64
228.511	1454.79
228.889	1550.47
229.266	1584.58
229.644	1526.43
230.022	1477.47
230.4	1354.79
230.777	1276.53
231.155	1205.78
231.533	1241.16
231.91	1349.18
232.288	1457.87
232.665	1630.95
233.043	1791.64
233.42	1906.09
233.798	1939.48
234.175	1912.21
234.553	1805.3
234.93	1666.41
235.307	1506.85
235.685	1429.88
236.062	1413.07
236.439	1465.71
236.816	1580.66
237.194	1764.05
237.571	1986.74
237.948	2173.85
238.325	2255.61
238.702	2256.71
239.079	2230.4
239.456	2126.43
239.833	1946.43
240.21	1776.59
240.587	1661.11
240.964	1583.74
241.341	1608.61
241.718	1733.93
242.095	1945.87
242.472	2199.64
242.849	2392.58
243.225	2587.53
243.602	2712.36
243.979	2681.79
244.356	2575.95
244.732	2397.28
245.109	2198.53
245.486	2013.98
245.862	1889.4
246.239	1793.87
246.615	1808.92
246.992	1929.19
247.368	2163.32
247.745	2456.7
248.121	2712.08
248.497	2939.46
248.874	3117.44
249.25	3176.86
249.626	3051.67
250.003	2925.18
250.379	2653.41
250.755	2427.97
251.131	2163.87
251.507	2047.04
251.884	1982.3
252.26	2056.76
252.636	2217.1
253.012	2505.86
253.388	2854.85
253.764	3147.02
254.14	3394.45
254.516	3537.09
254.892	3621.26
255.268	3576.05
255.643	3369.33
256.019	3094.7
256.395	2778.41
256.771	2550.29
257.147	2302.95
257.522	2185.22
257.898	2172.47
258.274	2273.33
258.649	2478.8
259.025	2754.47
259.4	3136.88
259.776	3459.67
260.151	3691.19
260.527	3894.93
260.902	3970.06
261.278	3867.8
261.653	3641.4
262.028	3364.14
262.404	3079.9
262.779	2793.27
263.154	2481.28
263.53	2274.71
263.905	2221.25
264.28	2230.4
264.655	2404.75
265.03	2643.22
265.405	2987.76
265.781	3326.45
266.156	3659.09
266.531	3877.84
266.906	4001.5
267.281	4068.13
267.655	3961.11
268.03	3748.29
268.405	3464.03
268.78	3181.24
269.155	2847.16
269.53	2545.6
269.904	2355.8
270.279	2180.23
270.654	2156.38
271.029	2255.33
271.403	2429.9
271.778	2709.61
272.152	3033.57
272.527	3289.01
272.901	3665.07
273.276	3881.64
273.65	3985.78
274.025	3996.89
274.399	3898.19
274.774	3719.47
275.148	3477.94
275.522	3133.6
275.897	2865.85
276.271	2527.66
276.645	2303.78
277.019	2126.43
277.393	2102.56
277.768	2046.2
278.142	2161.1
278.516	2354.42
278.89	2637.43
279.264	2911.45
279.638	3187.53
280.012	3459.12
280.386	3626.43
280.76	3733.61
281.133	3773.56
281.507	3726.81
281.881	3571.97
282.255	3405.09
282.629	3166.46
283.002	2845.51
283.376	2568.5
283.75	2272.22
284.123	2090.91
284.497	1932.8
284.87	1825.36
285.244	1894.96
285.618	1940.59
285.991	2065.92
286.364	2336.44
286.738	2572.36
287.111	2846.06
287.485	2997.64
287.858	3189.18
288.231	3375.34
288.605	3399.36
288.978	3450.94
289.351	3320.71
289.724	3187.81
290.097	3056.05
290.47	2803.72
290.843	2585.88
291.217	2299.35
291.59	2087.57
291.963	1904.98
292.336	1759.59
292.708	1645.47
293.081	1615.87
293.454	1690.14
293.827	1711.62
294.2	1864.62
294.573	1991.47
294.945	2187.44
295.318	2430.18
295.691	2630.54
296.064	2824.07
296.436	2958.4
296.809	3097.71
297.181	3147.56
297.554	3178.23
297.926	3081.27
298.299	3054.41
298.671	2940.83
299.044	2787.22
299.416	2610.97
299.788	2432.94
300.161	2196.03
300.533	2043.15
300.905	1940.59
301.278	1782.17
301.65	1746.48
302.022	1711.9
302.394	1747.88
302.766	1852.65
303.138	2041.48
303.51	2262.81
303.882	2526.56
304.254	2810.04
304.626	3148.11
304.998	3441.12
305.37	3678.95
305.742	3910.13
306.114	4191.24
306.485	4277.18
306.857	4381.37
307.229	4381.1
307.601	4340.63
307.972	4305.26
308.344	4094.12
308.716	3893.85
309.087	3713.49
309.459	3481.76
309.83	3297.48
310.202	3168.1
310.573	3106.21
310.945	3073.32
311.316	3114.15
311.687	3264.4
312.059	3500.84
312.43	3875.12
312.801	4330.37
313.172	4818.11
313.544	5317.05
313.915	5879.9
314.286	6381.12
314.657	6918.41
315.028	7321.18
315.399	7653.09
315.77	7966.59
316.141	8122.23
316.512	8257.17
316.883	8198.28
317.254	8131.06
317.625	8007.92
317.996	7867.48
318.366	7622.32
318.737	7370.86
319.108	7246.09
319.478	7005.54
319.849	7005.8
320.22	7032.03
320.59	7161.77
320.961	7435.67
321.331	7863.84
321.702	8229.68
322.072	8765.18
322.443	9365.95
322.813	10050.64
323.184	10747.99
323.554	11239.06
323.924	11902.5
324.295	12296.66
324.665	12680.14
325.035	13077.91
325.405	13264.59
325.775	13324.27
326.145	13349.59
326.515	13302.45
326.886	13204.89
327.256	13144.42
327.626	12852.36
327.995	12601.9
328.365	12384.6
328.735	12161
329.105	11814.06
329.475	11593.01
329.845	11307.53
330.215	11519.34
330.584	11981.05
330.954	12708.06
331.324	13682.24
331.693	14696.44
332.063	15528.02
332.432	16466.73
332.802	16837.62
333.171	17019.71
333.541	16822.28
333.91	17053.09
334.28	17325.05
334.649	17515.31
335.018	17724.99
335.388	17807.95
335.757	17830.42
336.126	17754.13
336.495	17844.98
336.865	17689.44
337.234	17442.43
337.603	17364.1
337.972	17210.36
338.341	17040.73
338.71	17016.98
339.079	16782.93
339.448	16745.06
339.817	16700.25
340.186	16619.79
340.554	16606.17
340.923	16894.04
341.292	16821.78
341.661	17094.39
342.029	17433.78
342.398	17646.22
342.767	17842.26
343.135	18288.86
343.504	18453.57
343.872	18830.9
344.241	19187.54
344.609	19120.57
344.978	19370.96
345.346	19768.88
345.715	19561.46
346.083	19635.77
346.451	19709.59
346.82	19702.45
347.188	19687.2
347.556	19499.93
347.924	19553.34
348.292	19275.93
348.66	19197.64
349.028	19032.65
349.396	18734.31
349.764	18684.78
350.132	18410.67
350.5	18513.23
350.868	18352.97
351.236	18267.4
351.604	18285.16
351.972	18341.63
352.34	18202.04
352.707	18340.15
353.075	18588.17
353.443	18599.26
353.81	18600.49
354.178	18806.75
354.545	19200.59
354.913	19192.22
355.28	19242.45
355.648	19436.68
356.015	19609.44
356.383	19783.89
356.75	19627.65
357.117	19636.76
357.485	19785.86
357.852	19640.45
358.219	19697.04
358.586	19640.2
358.954	19556.78
359.321	19429.54
359.688	19365.54
360.055	19161.93
360.422	19137.56
360.789	18859.72
361.156	18681.58
361.523	18578.8
361.89	18439.52
362.256	18394.89
362.623	18203.02
362.99	18084.36
363.357	18074.25
363.724	18010.59
364.09	18029.34
364.457	17958.52
364.823	18233.36
365.19	18220.29
365.557	18377.88
365.923	18474.04
366.29	18386.51
366.656	18649.54
367.022	18839.28
367.389	18756.24
367.755	18759.94
368.121	18796.41
368.488	18933.88
368.854	18755.01
369.22	18661.37
369.586	18562.78
369.952	18542.32
370.318	18378.62
370.684	18381.33
371.051	18356.67
371.416	18099.66
371.782	18116.44
372.148	17850.16
372.514	17730.67
372.88	17576.57
373.246	17387.08
373.612	17377.2
373.977	17298.11
374.343	17361.38
374.709	17344.57
375.074	17039
375.44	16783.67
375.806	16613.85
376.171	16668.32
376.537	16665.59
376.902	16661.39
377.268	16810.89
377.633	16953.41
377.998	17114.92
378.364	17473.81
378.729	17412.28
379.094	17380.41
379.459	17093.65
379.825	17117.14
380.19	17255.35
380.555	17082.28
380.92	16893.79
381.285	16929.91
381.65	17120.85
382.015	17223.71
382.38	17058.29
382.745	16821.29
383.11	16883.64
383.474	16897.99
383.839	16887.6
384.204	16621.28
384.569	16507.11
384.933	16424.62
385.298	16156.95
385.663	16209.26
386.027	16136.37
386.392	16114.54
386.756	16132.65
387.121	15990.78
387.485	16027.49
387.849	16004.67
388.214	15599.57
388.578	15326.2
388.942	15025.95
389.307	14925.62
389.671	14787.14
390.035	14871.83
390.399	14980.14
390.763	15073.23
391.127	15260.81
391.492	15712.31
391.856	16036.42
392.219	16476.15
392.583	16424.87
392.947	15962.99
393.311	15666.13
393.675	15695.93
394.039	15690.71
394.403	15569.51
394.766	15611.24
395.13	15639.55
395.494	15528.27
395.857	15719.27
396.221	15891.53
396.584	16161.91
396.948	16472.93
397.311	16956.88
397.675	17202.2
398.038	17110.96
398.401	16454.6
398.765	15895.75
399.128	15432.85
399.491	15041.87
399.854	14807.82
400.218	14712.64
400.581	14457.33
400.944	14181.52
401.307	13693
401.67	13621.16
402.033	13337.55
402.396	13139.9
402.759	13059.59
403.122	12970.95
403.485	12982
403.847	13042.51
404.21	13149.94
404.573	13294.43
404.936	13298.94
405.298	12961.4
405.661	12657.25
406.023	12428.69
406.386	12392.66
406.749	12402.74
407.111	12406.02
407.473	12807.12
407.836	13140.16
408.198	13341.31
408.561	13436.06
408.923	13418.77
409.285	13550.04
409.647	13286.65
410.009	13126.35
410.372	13183.06
410.734	13109.54
411.096	13166.5
411.458	13255.31
411.82	13323.26
412.182	13521.49
412.544	13403.73
412.906	13327.78
413.267	13282.89
413.629	12921.97
413.991	12668.07
414.353	12607.68
414.714	12177.39
415.076	12111.04
415.438	11983.07
415.799	11936.1
416.161	11594.53
416.522	11356.45
416.884	11154.32
417.245	10998.92
417.607	10820.23
417.968	10763.25
418.329	10727.12
418.691	10705.74
419.052	10595.23
419.413	10740.35
419.774	10816.67
420.135	11235.76
420.497	11571.75
420.858	12053
421.219	12133.25
421.58	11966.15
421.941	11659.05
422.302	11429.94
422.662	11532.25
423.023	11397.76
423.384	11539.34
423.745	11696.24
424.106	11981.81
424.466	12068.9
424.827	11926.25
425.187	11694.97
425.548	11505.92
425.909	11402.32
426.269	11626.66
426.63	11787.27
426.99	12025.74
427.35	11879.26
427.711	11991.91
428.071	12085.31
428.431	12576.23
428.792	13396.46
429.152	14156.55
429.512	14199
429.872	13824.36
430.232	13326.27
430.592	12455.38
430.952	11680.55
431.312	11102.79
431.672	10507.07
432.032	10515.48
432.392	10670.36
432.752	11547.95
433.111	12040.13
433.471	11805.21
433.831	10759.44
434.19	10546.83
434.55	10563.64
434.91	10216.99
435.269	10485.41
435.629	10494.84
435.988	10649.22
436.348	10420.9
436.707	10158.5
437.066	10295.89
437.426	10474.96
437.785	10761.47
438.144	10885.33
438.503	10882.79
438.862	10873.38
439.222	10754.09
439.581	10790.22
439.94	11191.36
440.299	12088.59
440.658	12974.97
441.017	13105.02
441.376	13087.45
441.734	12793.3
442.093	12813.91
442.452	13043.02
442.811	13297.69
443.169	13291.92
443.528	12949.85
443.887	12748.55
444.245	12796.82
444.604	12547.53
444.962	12308.25
445.321	12306.23
445.679	12367.47
446.038	12493.66
446.396	12146.87
446.754	11690.16
447.112	11604.65
447.471	11463.37
447.829	11161.17
448.187	11134.01
448.545	11090.6
448.903	11029.41
449.261	10915.58
449.619	10628.6
449.977	10452.27
450.335	10192.47
450.693	10067.77
451.051	9959.07
451.409	9867.69
451.766	9798.04
452.124	9544.45
452.482	9336.9
452.839	9197.76
453.197	9136.49
453.555	8965.42
453.912	9099.67
454.27	9380.08
454.627	9749.35
454.984	9799.83
455.342	9626.04
455.699	9415.54
456.056	9653.99
456.414	9998.47
456.771	10360.45
457.128	10598.8
457.485	10799.12
457.842	10762.74
458.199	10879.23
458.556	11251.99
458.913	11285.72
459.27	11529.22
459.627	11286.99
459.984	11364.05
460.341	11584.15
460.697	11329.07
461.054	10827.1
461.411	10351.26
461.767	10177.15
462.124	10095.89
462.481	10517.27
462.837	10788.18
463.194	11348.34
463.55	11121.32
463.907	11631.73
464.263	11991.91
464.619	12477.29
464.976	12820.45
465.332	12813.41
465.688	12103.73
466.044	11152.54
466.4	10777.24
466.756	10576.13
467.112	10544.28
467.468	10492.29
467.824	10317.58
468.18	9955.74
468.536	9868.97
468.892	9494.9
469.248	9328.16
469.604	9235.84
469.959	9181.54
470.315	9086.53
470.671	9140.1
471.026	9191.06
471.382	9374.69
471.737	9618.6
472.093	9717.83
472.448	10114.03
472.804	10418.35
473.159	10521.09
473.514	10573.84
473.87	10717.19
474.225	11464.39
474.58	12051.49
474.935	12085.31
475.29	11761.23
475.645	11771.09
476	11789.04
476.355	11740.24
476.71	11725.57
477.065	12446.07
477.42	13022.93
477.775	13059.08
478.13	12969.19
478.485	13235.49
478.839	13560.06
479.194	14351.79
479.549	14857.88
479.903	14951.76
480.258	14611.44
480.612	15162.81
480.967	15970.68
481.321	16091.98
481.675	15462.67
482.03	14972.18
482.384	14864.36
482.738	15034.91
483.093	15258.32
483.447	15883.1
483.801	16977.41
484.155	17431.31
484.509	20889.98
484.863	46846.31
485.217	59349.25
485.571	59299.53
485.925	37687.95
486.279	26901.93
486.632	22766.93
486.986	19382.28
487.34	16790.6
487.694	15744.59
488.047	15503.92
488.401	15458.69
488.754	15099.36
489.108	14593.99
489.461	14410.68
489.815	14057.12
490.168	14203.5
490.522	14362.27
490.875	14144.06
491.228	13986.14
491.581	14070.11
491.935	14050.62
492.288	13840.62
492.641	14003.89
492.994	13948.14
493.347	14246.2
493.7	14297.87
494.053	14135.06
494.406	13822.36
494.759	13291.92
495.111	14006.39
495.464	15234.2
495.817	16013.6
496.169	15293.63
496.522	14150.55
496.875	13102.51
497.227	13006.86
497.58	12945.83
497.932	13415.26
498.285	13555.3
498.637	14225.47
498.989	14808.07
499.342	14778.67
499.694	14292.38
500.046	13932.14
500.398	14723.11
500.751	15235.19
501.103	15262.8
501.455	15330.43
501.807	15346.09
502.159	15540.44
502.511	15624.16
502.862	15591.87
503.214	15152.36
503.566	14644.35
503.918	14235.96
504.27	14346.3
504.621	14435.62
504.973	14267.42
505.324	14325.83
505.676	14865.6
506.027	14934.83
506.379	14031.13
506.73	13545.53
507.082	13814.61
507.433	14145.56
507.784	14539.39
508.136	14039.37
508.487	13797.09
508.838	13426.28
509.189	13494.18
509.54	13768.07
509.891	13515.98
510.242	13428.54
510.593	13242.26
510.944	13073.64
511.295	12568.17
511.646	12271.2
511.996	12323.12
512.347	12512.04
512.698	12445.31
513.049	12336.48
513.399	12065.37
513.75	12193.53
514.1	11737.71
514.451	11232.71
514.801	11165.48
515.152	11408.15
515.502	11654.5
515.852	11875.47
516.202	11851.97
516.553	11568.46
516.903	11097.97
517.253	10866.51
517.603	10632.42
517.953	10726.61
518.303	11314.12
518.653	11495.29
519.003	11306.76
519.353	10716.94
519.703	10169.74
520.052	10094.35
520.402	10183.28
520.752	10430.34
521.102	10212.14
521.451	10038.11
521.801	10061.37
522.15	10272.15
522.5	10491.78
522.849	10503.51
523.199	10794.03
523.548	10962.59
523.897	10886.85
524.246	10574.34
524.596	10346.93
524.945	10448.95
525.294	10457.37
525.643	10635.22
525.992	10633.69
526.341	10762.74
526.69	10783.6
527.039	10599.56
527.388	10444.36
527.737	11058.87
528.086	11939.63
528.434	12453.12
528.783	12031.04
529.132	11487.18
529.48	11133
529.829	11111.68
530.177	10994.35
530.526	10862.96
530.874	10961.07
531.223	11073.85
531.571	10962.08
531.919	11046.68
532.268	11760.47
532.616	12569.68
532.964	13096.74
533.312	13088.71
533.66	12919.45
534.008	13038.5
534.356	13035.99
534.704	12851.86
535.052	12392.41
535.4	12005.29
535.748	11414.23
536.095	10804.72
536.443	10648.71
536.791	11053.79
537.139	11580.86
537.486	12171.59
537.834	12329.17
538.181	12418.36
538.529	12333.7
538.876	12426.42
539.223	12011.1
539.571	11531.49
539.918	11469.45
540.265	11846.41
540.613	12222.03
540.96	11939.13
541.307	11789.54
541.654	11774.12
542.001	11760.97
542.348	11704.08
542.695	11691.43
543.042	11976.25
543.388	12250.78
543.735	12316.06
544.082	12285.31
544.429	12330.18
544.775	11730.88
545.122	11146.45
545.469	10584.03
545.815	10737.55
546.162	10856.09
546.508	11277.35
546.854	12018.92
547.201	13007.11
547.547	13328.53
547.893	12821.7
548.24	11689.91
548.586	10590.9
548.932	10273.68
549.278	10117.1
549.624	10410.96
549.97	10219.29
550.316	9818.53
550.662	9701.43
551.008	10506.31
551.353	11889.87
551.699	12690.7
552.045	12205.64
552.391	11490.22
552.736	11448.94
553.082	11420.06
553.427	11235.76
553.773	10436.97
554.118	10346.93
554.464	10950.9
554.809	11766.28
555.154	12390.15
555.5	12354.87
555.845	11626.66
556.19	10957
556.535	10450.74
556.88	10810.31
557.225	10931.59
557.57	10617.39
557.915	10136.78
558.26	9867.18
558.605	9898.93
558.95	10249.68
559.295	11333.38
559.639	12307.75
559.984	13377.41
560.329	13428.04
560.673	13695.5
561.018	12793.55
561.362	12266.91
561.707	11605.41
562.051	11757.94
562.395	12001.5
562.74	12601.14
563.084	12885.28
563.428	13484.66
563.772	13471.39
564.117	13492.68
564.461	13688
564.805	13323.26
565.149	13513.22
565.493	13522.74
565.836	14022.38
566.18	14210.99
566.524	16249.67
566.868	17345.07
567.212	17929.64
567.555	18302.67
567.899	20054.46
568.242	21787.97
568.586	24654.91
568.929	28111.09
569.273	31590.4
569.616	31951.24
569.96	32923.66
570.303	34899.77
570.646	35988.3
570.989	38017.17
571.333	37758.74
571.676	35264.98
572.019	29846.14
572.362	32357.03
572.705	37263.84
573.048	41765.07
573.391	44517.1
573.733	46055.49
574.076	47090.38
574.419	44960.5
574.762	40442.29
575.104	35538.64
575.447	34984.95
575.789	39369.22
576.132	44678.55
576.474	45285.26
576.817	52432.1
577.159	59230.3
577.501	59806.04
577.844	52818.84
578.186	42242.76
578.528	37847.85
578.87	37519.67
579.212	39358.56
579.554	42733.04
579.896	42023.9
580.238	46148.08
580.58	60337.1
580.922	68005.74
581.264	68745.34
581.606	62980.4
581.947	56221.55
582.289	46021.27
582.631	37338.8
582.972	32341.01
583.314	32690.96
583.655	34402.62
583.997	40905.7
584.338	47992.56
584.679	52749.79
585.021	51422.38
585.362	44849.94
585.703	38888.8
586.044	37374.18
586.385	41651.77
586.726	45959.93
587.067	43938.43
587.408	39223.92
587.749	35877.6
588.09	32996.63
588.431	29809.49
588.772	27137.17
589.113	27858.04
589.453	28289.97
