Data from FLMS007011_11-55-39-973.txt Node
Date: Thu Apr 21 11:55:39 MDT 2016
User: lab_user
Spectrometer: FLMS00701
Autoset integration time: false
Trigger mode: 0
Integration Time (sec): 5.000000E-3
Scans to average: 10
Electric dark correction enabled: true
Nonlinearity correction enabled: true
Boxcar width: 0
XAxis mode: Wavelengths
Stop averaging: false
Number of Pixels in Spectrum: 2048
>>>>>Begin Spectral Data<<<<<
178.41	22.31
178.791	22.31
179.172	22.31
179.553	-42.55
179.934	-59.99
180.316	-61.13
180.697	-72.57
181.078	-59.7
181.459	-47.12
181.84	-70.57
182.221	-29.97
182.602	-5.97
182.983	17.74
183.364	50.87
183.744	38.87
184.125	65.71
184.506	76.84
184.887	132.18
185.268	139.31
185.648	169.81
186.029	174.66
186.41	167.25
186.791	243.02
187.171	282.58
187.552	376.13
187.932	435.21
188.313	455.65
188.694	470.13
189.074	481.2
189.455	509
189.835	509.56
190.216	553.8
190.596	542.18
190.977	590.35
191.357	601.4
191.737	612.17
192.118	629.16
192.498	622.08
192.878	662
193.258	680.67
193.639	698.5
194.019	700.76
194.399	676.71
194.779	705.28
195.159	719.14
195.54	717.45
195.92	722.82
196.3	742.61
196.68	772.86
197.06	766.64
197.44	774.27
197.82	773.14
198.2	797.72
198.58	817.21
198.959	788.11
199.339	809.02
199.719	829.07
200.099	842.34
200.479	832.74
200.858	839.51
201.238	862.38
201.618	853.91
201.998	880.44
202.377	909.5
202.757	901.32
203.136	917.11
203.516	931.49
203.896	957.15
204.275	942.49
204.655	965.32
205.034	997.73
205.414	1032.37
205.793	987.58
206.172	1000.26
206.552	1027.02
206.931	1035.46
207.31	1069.52
207.69	1094
208.069	1085
208.448	1121.57
208.827	1149.69
209.207	1152.78
209.586	1178.64
209.965	1164.58
210.344	1208.42
210.723	1208.98
211.102	1248.01
211.481	1280.57
211.86	1291.79
212.239	1326.02
212.618	1356.86
212.997	1388.25
213.376	1436.98
213.755	1469.74
214.134	1472.54
214.513	1498.28
214.891	1557.01
215.27	1579.65
215.649	1624.92
216.028	1651.17
216.406	1734.32
216.785	1751.89
217.164	1780.6
217.542	1859.44
217.921	1931.24
218.3	1963.5
218.678	1955.44
219.057	2063.25
219.435	2154
219.814	2200.02
220.192	2277.04
220.57	2328.25
220.949	2433.88
221.327	2545.43
221.705	2598.39
222.084	2710.54
222.462	2806.3
222.84	2914.03
223.218	3002.14
223.597	3123.02
223.975	3282.28
224.353	3385.55
224.731	3552.73
225.109	3710.33
225.487	3882.29
225.865	4024.09
226.243	4103.97
226.621	4302.13
226.999	4499.56
227.377	4688.47
227.755	4858.47
228.133	5100.94
228.511	5219.13
228.889	5498.22
229.266	5676.54
229.644	5884.24
230.022	6120.35
230.4	6315.21
230.777	6511
231.155	6796.35
231.533	7071.47
231.91	7290.67
232.288	7467.91
232.665	7742.07
233.043	8037.13
233.42	8259.61
233.798	8591.36
234.175	8860.54
234.553	9054.43
234.93	9330.83
235.307	9628.96
235.685	9857.81
236.062	10131
236.439	10321.76
236.816	10582.85
237.194	10964.22
237.571	11190.95
237.948	11378.09
238.325	11664.97
238.702	11910.43
239.079	12230.45
239.456	12475.63
239.833	12740.6
240.21	12979.58
240.587	13235.09
240.964	13567.67
241.341	13866.73
241.718	14048.97
242.095	14282.24
242.472	14518.29
242.849	14793.71
243.225	15078.31
243.602	15289.5
243.979	15447.85
244.356	15713.65
244.732	16062.07
245.109	16259.18
245.486	16494.82
245.862	16747.38
246.239	16938.91
246.615	17218.86
246.992	17515.9
247.368	17508.98
247.745	17803.85
248.121	18113.33
248.497	18248.26
248.874	18594.18
249.25	18823.36
249.626	19065.74
250.003	19291.05
250.379	19514.79
250.755	19702.06
251.131	19948.06
251.507	20063.9
251.884	20405.42
252.26	20453.6
252.636	20753.7
253.012	20907.28
253.388	21178.99
253.764	21316.8
254.14	21496.58
254.516	21656.94
254.892	21629.19
255.268	21863.93
255.643	22074.58
256.019	22245.44
256.395	22272.44
256.771	22455.32
257.147	22643.57
257.522	22785.43
257.898	22919.18
258.274	22993.3
258.649	23074.53
259.025	23327.53
259.4	23327.78
259.776	23580.03
260.151	23526.54
260.527	23606.53
260.902	23689.47
261.278	23858.29
261.653	23910.8
262.028	23831.29
262.404	24048.94
262.779	24175.8
263.154	24384.36
263.53	24490.36
263.905	24271.24
264.28	24386.81
264.655	24439.81
265.03	24411.6
265.405	24551.71
265.781	24587.04
266.156	24682.24
266.531	24632.43
266.906	24744.08
267.281	24934.5
267.655	24773.28
268.03	24745.55
268.405	24811.07
268.78	24772.05
269.155	25013.51
269.53	24755.37
269.904	24875.6
270.279	24980.63
270.654	24995.6
271.029	24790.7
271.403	24996.33
271.778	25001.98
272.152	24830.7
272.527	24868.73
272.901	25102.83
273.276	25127.37
273.65	25199.52
274.025	25153.38
274.399	25127.62
274.774	25084.92
275.148	25202.46
275.522	25085.17
275.897	25080.26
276.271	25140.13
276.645	25334.24
277.019	25461.37
277.393	25519.04
277.768	25277.31
278.142	25310.44
278.516	25246.15
278.89	25370.07
279.264	25278.54
279.638	25427.74
280.012	25450.81
280.386	25079.03
280.76	25292.28
281.133	25334.24
281.507	25263.08
281.881	25423.82
282.255	25410.08
282.629	25210.56
283.002	25191.91
283.376	25318.78
283.75	25227.25
284.123	25250.81
284.497	25238.29
284.87	25257.68
285.244	25310.19
285.618	25172.03
285.991	24976.21
286.364	25143.32
286.738	25125.41
287.111	25172.03
287.485	24997.32
287.858	24908.49
288.231	24777.7
288.605	24853.27
288.978	24883.95
289.351	24654.52
289.724	24528.15
290.097	24596.36
290.47	24432.7
290.843	24471.71
291.217	24419.94
291.59	24175.31
291.963	24309.77
292.336	24043.3
292.708	23949.56
293.081	23945.64
293.454	23918.65
293.827	23918.65
294.2	23581.26
294.573	23767.99
294.945	23485.8
295.318	23668.86
295.691	23486.05
296.064	23351.33
296.436	23336.36
296.809	23478.2
297.181	23214.9
297.554	23186.43
297.926	23066.43
298.299	22917.47
298.671	23214.4
299.044	23121.15
299.416	22999.19
299.788	22954.52
300.161	22913.05
300.533	22963.36
300.905	23157.47
301.278	22981.27
301.65	22995.51
302.022	22864.46
302.394	22867.65
302.766	22882.62
303.138	22779.54
303.51	22952.56
303.882	22799.42
304.254	22853.17
304.626	23008.51
304.998	22998.45
305.37	22769.23
305.742	22840.16
306.114	22840.9
306.485	22965.57
306.857	22940.04
307.229	22728.25
307.601	22823.47
307.972	22820.53
308.344	22648.48
308.716	22801.63
309.087	22823.96
309.459	22641.12
309.83	22741.5
310.202	22676.95
310.573	22796.97
310.945	22653.88
311.316	22470.78
311.687	22620.01
312.059	22519.13
312.43	22590.56
312.801	22519.38
313.172	22431.75
313.544	22434.45
313.915	22526.74
314.286	22466.85
314.657	22440.83
315.028	22487.72
315.399	22308.53
315.77	22433.22
316.141	22203.96
316.512	22399.35
316.883	22095.94
317.254	22209.11
317.625	22029.9
317.996	22172.04
318.366	22128.84
318.737	22124.42
319.108	22059.61
319.478	22014.19
319.849	21945.2
320.22	21893.15
320.59	21819.25
320.961	21750
321.331	21870.81
321.702	21471.04
322.072	21517.21
322.443	21491.91
322.813	21554.54
323.184	21461.46
323.554	21360.76
323.924	21325.88
324.295	21122.74
324.665	21173.34
325.035	21148.78
325.405	20977.55
325.775	20966.24
326.145	20832.33
326.515	20818.82
326.886	20670.88
327.256	20625.41
327.626	20241.69
327.995	20010.78
328.365	19748.07
328.735	19400.59
329.105	18911.31
329.475	18894.06
329.845	19037.17
330.215	19616.18
330.584	20393.13
330.954	21126.18
331.324	21716.36
331.693	22012.72
332.063	22169.1
332.432	22288.4
332.802	21991.36
333.171	21669.22
333.541	20925.95
333.91	20608.46
334.28	20244.39
334.649	20215.38
335.018	20067.34
335.388	20049.14
335.757	20087.02
336.126	19946.58
336.495	19972.9
336.865	19892.47
337.234	19763.07
337.603	19813.26
337.972	19539.4
338.341	19704.52
338.71	19634.39
339.079	19559.58
339.448	19634.15
339.817	19570.66
340.186	19418.56
340.554	19410.93
340.923	19544.57
341.292	19216.45
341.661	19412.9
342.029	19364.16
342.398	19251.16
342.767	19032.99
343.135	19243.28
343.504	19042.59
343.872	19146.52
344.241	19094.06
344.609	19067.22
344.978	19074.86
345.346	19148.98
345.715	19047.27
346.083	18877.31
346.451	18899.73
346.82	18845.29
347.188	18877.56
347.556	18657.77
347.924	18790.1
348.292	18620.55
348.66	18658.51
349.028	18453.18
349.396	18479.56
349.764	18529.11
350.132	18355.29
350.5	18339.01
350.868	18360.22
351.236	18376.49
351.604	18174.26
351.972	18243.82
352.34	18114.31
352.707	18158.22
353.075	18142.68
353.443	18029.19
353.81	17916.66
354.178	17906.54
354.545	17925.79
354.913	17920.85
355.28	17818.41
355.648	17841.37
356.015	17727.81
356.383	17761.63
356.75	17574.94
357.117	17634.71
357.485	17645.82
357.852	17497.37
358.219	17582.84
358.586	17671.01
358.954	17452.41
359.321	17356.78
359.688	17321.19
360.055	17289.56
360.422	17328.85
360.789	17195.87
361.156	17189.69
361.523	17138.01
361.89	17150.37
362.256	17194.38
362.623	17086.58
362.99	17025.74
363.357	17050.96
363.724	16985.91
364.09	16935.45
364.457	16838.95
364.823	17023.26
365.19	16878.3
365.557	16924.81
365.923	16839.94
366.29	16859.74
366.656	16853.8
367.022	16947.82
367.389	16818.91
367.755	16627.07
368.121	16617.91
368.488	16648.61
368.854	16531.73
369.22	16362.03
369.586	16313.46
369.952	16167.21
370.318	16058.84
370.684	16071.99
371.051	16039.25
371.416	15937.04
371.782	15881.21
372.148	15845.47
372.514	15760.08
372.88	15706.45
373.246	15737.74
373.612	15785.4
373.977	15745.68
374.343	15881.7
374.709	16022.63
375.074	15851.68
375.44	15754.62
375.806	15586
376.171	15686.09
376.537	15688.82
376.902	15580.78
377.268	15785.4
377.633	15774.98
377.998	15922.9
378.364	16127.78
378.729	16087.86
379.094	16019.4
379.459	15589.23
379.825	15608.11
380.19	15564.39
380.555	15341.72
380.92	15093.73
381.285	14937.42
381.65	15153.95
382.015	15261.4
382.38	15130.56
382.745	14945.88
383.11	14836.56
383.474	14862.71
383.839	14875.91
384.204	14769.3
384.569	14790.23
384.933	14649.18
385.298	14550.21
385.663	14445.7
386.027	14572.15
386.392	14642.45
386.756	14829.09
387.121	14883.38
387.485	14965.8
387.849	15178.08
388.214	14931.19
388.578	14748.62
388.942	14528.01
389.307	14558.43
389.671	14524.52
390.035	14610.05
390.399	14603.06
390.763	14713.73
391.127	14910.78
391.492	15211.66
391.856	15443.63
392.219	15867.06
392.583	15815.19
392.947	15264.88
393.311	14808.66
393.675	14679.84
394.039	14501.58
394.403	14586.61
394.766	14407.53
395.13	14374.34
395.494	14249.79
395.857	14307.71
396.221	14410.52
396.584	14716.72
396.948	15045.95
397.311	15312.13
397.675	15690.56
398.038	15652.81
398.401	15244.74
398.765	14819.12
399.128	14384.32
399.491	14148.9
399.854	13990.24
400.218	14026.73
400.581	13868.73
400.944	13768.17
401.307	13437.66
401.67	13417.61
402.033	13347.43
402.396	13395.56
402.759	13384.28
403.122	13402.32
403.485	13465.47
403.847	13576.18
404.21	13732.14
404.573	13872.98
404.936	13985.49
405.298	13746.9
405.661	13438.66
406.023	13028.3
406.386	12837.89
406.749	12821.05
407.111	12712.93
407.473	12989.13
407.836	13157.07
408.198	13325.62
408.561	13315.84
408.923	13203.23
409.285	13163.09
409.647	13050.14
410.009	12848.69
410.372	12751.16
410.734	12642.25
411.096	12630.68
411.458	12632.69
411.82	12772.78
412.182	12947.43
412.544	12938.14
412.906	12962.76
413.267	12981.09
413.629	12744.87
413.991	12574.31
414.353	12561.22
414.714	12262.97
415.076	12294.74
415.438	12331.28
415.799	12356.48
416.161	12133.09
416.522	12081.62
416.884	12008.92
417.245	12008.42
417.607	11992.01
417.968	11984.68
418.329	12080.61
418.691	12067.23
419.052	12139.4
419.413	12139.4
419.774	12366.31
420.135	12769.26
420.497	13135.23
420.858	13710.37
421.219	13737.39
421.58	13431.64
421.941	13060.94
422.302	12507.1
422.662	12568.02
423.023	12214.31
423.384	12158.07
423.745	12222.63
424.106	12311.37
424.466	12540.84
424.827	12264.74
425.187	11858.39
425.548	11535.9
425.909	11341.09
426.269	11526.53
426.63	11659.65
426.99	11883.91
427.35	11829.32
427.711	11924.58
428.071	12008.17
428.431	12412.41
428.792	13218.53
429.152	14093.94
429.512	14466.41
429.872	14214.58
430.232	14031.97
430.592	13184.92
430.952	12392.51
431.312	11826.8
431.672	11389.49
432.032	11280.49
432.392	11579.94
432.752	12483.18
433.111	13385.03
433.471	13367.48
433.831	12483.94
434.19	12105.84
434.55	12135.36
434.91	11809.1
435.269	12149.49
435.629	12165.38
435.988	12397.3
436.348	12182.28
436.707	11820.22
437.066	11585.01
437.426	11754.25
437.785	11880.62
438.144	11979.13
438.503	11746.41
438.862	11721.37
439.222	11504.5
439.581	11322.33
439.94	11449.03
440.299	12170.93
440.658	12937.64
441.017	13223.8
441.376	13039.6
441.734	12640.74
442.093	12451.96
442.452	12555.94
442.811	12842.91
443.169	12848.44
443.528	12514.91
443.887	12360.26
444.245	12265.75
444.604	12086.41
444.962	11921.8
445.321	11753.99
445.679	11867.23
446.038	12094.49
446.396	11873.8
446.754	11533.11
447.112	11429.53
447.471	11356.04
447.829	11101.11
448.187	11249.05
448.545	11272.13
448.903	11222.92
449.261	11098.07
449.619	11012.49
449.977	10958.63
450.335	10670.46
450.693	10573.17
451.051	10595.59
451.409	10424.57
451.766	10510.49
452.124	10321.51
452.482	10025.93
452.839	9846.8
453.197	9720.49
453.555	9621.26
453.912	9603.82
454.27	9815.04
454.627	10163.2
454.984	10186.44
455.342	10017.75
455.699	9701.78
456.056	9718.19
456.414	9864.47
456.771	10171.63
457.128	10374.07
457.485	10495.45
457.842	10412.33
458.199	10365.14
458.556	10563.23
458.913	10493.41
459.27	10749.61
459.627	10435.54
459.984	10427.63
460.341	10589.22
460.697	10381.98
461.054	9931.28
461.411	9400.48
461.767	9117.54
462.124	9071.95
462.481	9342.15
462.837	9517.59
463.194	10081.16
463.55	9947.4
463.907	10298.79
464.263	10651.36
464.619	11026.46
464.976	11461.95
465.332	11572.6
465.688	11236.87
466.044	10251.05
466.4	9951.24
466.756	9660.76
467.112	9748.69
467.468	9642.55
467.824	9607.41
468.18	9334.69
468.536	9337.26
468.892	9050.83
469.248	8968.87
469.604	8744.62
469.959	8754.69
470.315	8808.92
470.671	8766.83
471.026	8897.69
471.382	9041.81
471.737	9200.94
472.093	9451.6
472.448	9746.12
472.804	10034.37
473.159	10269.95
473.514	10215.3
473.87	10314.62
474.225	10805.33
474.58	11283.54
474.935	11448.53
475.29	11203.39
475.645	10984.29
476	10903.22
476.355	10756.74
476.71	10721.62
477.065	11148.58
477.42	11548.81
477.775	11672.3
478.13	11503.74
478.485	11552.35
478.839	11652.06
479.194	12306.84
479.549	12701.87
479.903	12888.9
480.258	12604.01
480.612	12732.8
480.967	13323.11
481.321	13621.26
481.675	13128.21
482.03	12613.07
482.384	12418.96
482.738	12461.27
483.093	12623.13
483.447	13157.32
483.801	13817.2
484.155	14442.96
484.509	16015.68
484.863	33730.37
485.217	48016.89
485.571	52212.57
485.925	36697.57
486.279	24180.21
486.632	18823.85
486.986	16334.52
487.34	14463.91
487.694	13292.02
488.047	12958.24
488.401	13060.94
488.754	12908.5
489.108	12675.96
489.461	12479.91
489.815	12126.79
490.168	12265.75
490.522	12406.11
490.875	12441.13
491.228	12289.19
491.581	12334.05
491.935	12352.7
492.288	12296
492.641	12360.77
492.994	12388.48
493.347	12678.23
493.7	12731.8
494.053	12685.52
494.406	12442.89
494.759	11889.72
495.111	12183.04
495.464	13222.3
495.817	14160.64
496.169	13827.71
496.522	12759.2
496.875	11650.8
497.227	11348.44
497.58	11286.07
497.932	11498.93
498.285	11657.88
498.637	12158.57
498.989	12654.33
499.342	12652.57
499.694	12168.66
500.046	11729.21
500.398	12129.06
500.751	12643.51
501.103	12610.8
501.455	12719.47
501.807	12537.81
502.159	12542.09
502.511	12550.15
502.862	12547.63
503.214	12261.46
503.566	11776.75
503.918	11411.29
504.27	11467.78
504.621	11418.63
504.973	11339.57
505.324	11322.07
505.676	11673.82
506.027	11852.32
506.379	11265.53
506.73	10677.07
507.082	10709.91
507.433	11097.56
507.784	11511.34
508.136	11161.52
508.487	10998.26
508.838	10605.52
509.189	10516.09
509.54	10861.27
509.891	10727.22
510.242	10716.02
510.593	10567.31
510.944	10427.38
511.295	10130.74
511.646	9847.31
511.996	9867.03
512.347	10027.21
512.698	10146.33
513.049	9991.4
513.399	9876.5
513.75	9820.16
514.1	9617.42
514.451	9276.07
514.801	9143.03
515.152	9301.78
515.502	9473.43
515.852	9807.1
516.202	9840.4
516.553	9689.73
516.903	9357.31
517.253	9072.47
517.603	8982.53
517.953	9008.05
518.303	9325.18
518.653	9672.3
519.003	9631.27
519.353	9037.94
519.703	8591.88
520.052	8387.91
520.402	8436.09
520.752	8645.92
521.102	8571.19
521.451	8291.5
521.801	8374.18
522.15	8486.06
522.5	8617.22
522.849	8627.04
523.199	8824.15
523.548	8969.13
523.897	8882.73
524.246	8669.44
524.596	8434.02
524.945	8377.81
525.294	8422.1
525.643	8468.71
525.992	8464.83
526.341	8560.84
526.69	8491.75
527.039	8378.84
527.388	8139.73
527.737	8467.42
528.086	9155.64
528.434	9741
528.783	9466.76
529.132	9004.7
529.48	8742.56
529.829	8545.32
530.177	8444.12
530.526	8289.43
530.874	8398.02
531.223	8493.04
531.571	8411.48
531.919	8436.09
532.268	8879.12
532.616	9442.87
532.964	9967.61
533.312	10082.69
533.66	9861.14
534.008	9886.23
534.356	9981.17
534.704	9778.15
535.052	9570.72
535.4	9194.25
535.748	8740.49
536.095	8241.19
536.443	8159.45
536.791	8420.81
537.139	8801.17
537.486	9233.62
537.834	9521.7
538.181	9618.44
538.529	9531.71
538.876	9466.5
539.223	9384.81
539.571	8958.04
539.918	8881.95
540.265	9122.95
540.613	9531.2
540.96	9379.16
541.307	9238.25
541.654	9183.96
542.001	9258.32
542.348	9224.62
542.695	9171.86
543.042	9451.09
543.388	9671.53
543.735	9801.72
544.082	9797.11
544.429	9825.29
544.775	9435.42
545.122	8944.63
545.469	8509.87
545.815	8513.49
546.162	8612.82
546.508	8955.98
546.854	9511.95
547.201	10335.03
547.547	10792.86
547.893	10492.14
548.24	9622.29
548.586	8549.46
548.932	8170.36
549.278	8031.93
549.624	8275.68
549.97	8185.67
550.316	7879.55
550.662	7614.6
551.008	8094.54
551.353	9323.12
551.699	10024.65
552.045	9839.12
552.391	9104.66
552.736	8873.96
553.082	8794.72
553.427	8713.62
553.773	8217.84
554.118	7883.19
554.464	8280.87
554.809	8886.08
555.154	9447.75
555.5	9491.41
555.845	8898.46
556.19	8407.34
556.535	7892.3
556.88	8023.62
557.225	8262.46
557.57	8004.9
557.915	7667.27
558.26	7280.73
558.605	7333.31
558.95	7614.07
559.295	8309.65
559.639	9130.93
559.984	9897.75
560.329	10189.51
560.673	10120.52
561.018	9618.19
561.362	9066.03
561.707	8520.99
562.051	8615.41
562.395	8810.98
562.74	9271.18
563.084	9463.16
563.428	10003.94
563.772	9978.87
564.117	10031.05
564.461	10121.8
564.805	9843.98
565.149	9956.61
565.493	9971.45
565.836	10289.35
566.18	10526.29
566.524	11813.91
566.868	12978.08
567.212	13429.14
567.555	13616.5
567.899	14618.77
568.242	16176.13
568.586	18108.14
568.929	20674.57
569.273	23495.86
569.616	24220.94
569.96	24599.06
570.303	26073.23
570.646	26972.74
570.989	28309.72
571.333	28643.45
571.676	26947.21
572.019	22736.59
572.362	23388.88
572.705	27728.93
573.048	31907.24
573.391	33991.86
573.733	35313.23
574.076	36069.7
574.419	35045.29
574.762	31110.59
575.104	27376.22
575.447	25887.18
575.789	29403.07
576.132	34459.23
576.474	35027.27
576.817	40308.03
577.159	46352.06
577.501	48661.99
577.844	42634.78
578.186	32793.84
578.528	28095.22
578.87	28192.76
579.212	29653.17
579.554	33164.62
579.896	32734.19
580.238	34825.3
580.58	46398.82
580.922	54691.47
581.264	59022.58
581.606	51153.88
581.947	43748.29
582.289	34944.55
582.631	27630.92
582.972	23477.95
583.314	23627.63
583.655	25414.74
583.997	30202.94
584.338	36292.87
584.679	40449.09
585.021	40066.96
585.362	33972.13
585.703	28772.24
586.044	26494.22
586.385	30142.66
586.726	34014.56
