Data from FLMS007011_10-57-36-364.txt Node
Date: Thu Apr 21 10:57:36 MDT 2016
User: lab_user
Spectrometer: FLMS00701
Autoset integration time: false
Trigger mode: 0
Integration Time (sec): 5.000000E-3
Scans to average: 10
Electric dark correction enabled: true
Nonlinearity correction enabled: true
Boxcar width: 0
XAxis mode: Wavelengths
Stop averaging: false
Number of Pixels in Spectrum: 2048
>>>>>Begin Spectral Data<<<<<
178.41	22.2
178.791	22.2
179.172	22.2
179.553	-58.1
179.934	-39.23
180.316	-54.38
180.697	-80.4
181.078	-41.52
181.459	-50.95
181.84	-45.23
182.221	-7.51
182.602	-25.8
182.983	2.78
183.364	18.2
183.744	45.9
184.125	61.32
184.506	91.85
184.887	116.1
185.268	157.44
185.648	168.85
186.029	186.51
186.41	197.62
186.791	215
187.171	295.27
187.552	448.16
187.932	434.25
188.313	500.09
188.694	502.93
189.074	543.48
189.455	577.49
189.835	548.59
190.216	581.18
190.596	637.26
190.977	650
191.357	648.86
191.737	668.11
192.118	677.45
192.498	724.41
192.878	716.21
193.258	744.48
193.639	766.25
194.019	755.79
194.399	771.9
194.779	840.82
195.159	797.04
195.54	850.13
195.92	848.16
196.3	876.38
196.68	870.74
197.06	884.28
197.44	904.59
197.82	922.08
198.2	926.03
198.58	980.15
198.959	986.91
199.339	981.56
199.719	1023.53
200.099	1021.84
200.479	1030.85
200.858	1065.19
201.238	1102.62
201.618	1081.52
201.998	1138.61
202.377	1141.99
202.757	1176
203.136	1194.82
203.516	1234.71
203.896	1269.24
204.275	1324.5
204.655	1323.1
205.034	1358.43
205.414	1396.82
205.793	1425.95
206.172	1427.07
206.552	1480.83
206.931	1531.18
207.31	1568.65
207.69	1597.99
208.069	1645.19
208.448	1691.53
208.827	1715.25
209.207	1728.36
209.586	1826.75
209.965	1842.62
210.344	1901.92
210.723	1953.94
211.102	2027.87
211.481	2053.98
211.86	2100.07
212.239	2147.79
212.618	2215.99
212.997	2294.93
213.376	2316.24
213.755	2387.61
214.134	2458.63
214.513	2545.32
214.891	2584.77
215.27	2690.05
215.649	2740.16
216.028	2842.76
216.406	2908.43
216.785	3011.08
217.164	3077.98
217.542	3217.09
217.921	3307.05
218.3	3336.56
218.678	3450.12
219.057	3582.59
219.435	3709.68
219.814	3771.39
220.192	3902.53
220.57	4002.31
220.949	4146.89
221.327	4295.27
221.705	4391.62
222.084	4595.84
222.462	4714.7
222.84	4800.93
223.218	5056.95
223.597	5168.51
223.975	5367.75
224.353	5495.72
224.731	5685.48
225.109	5930.82
225.487	6111.77
225.865	6311.93
226.243	6484.27
226.621	6667.62
226.999	6958.83
227.377	7105.44
227.755	7304.17
228.133	7503.06
228.511	7694.8
228.889	8007.92
229.266	8172.33
229.644	8514.42
230.022	8749.94
230.4	8928.03
230.777	9111.26
231.155	9363.89
231.533	9646.04
231.91	9924.01
232.288	10126.3
232.665	10403.81
233.043	10614.85
233.42	10919.65
233.798	11093.14
234.175	11400.04
234.553	11659.05
234.93	11908.57
235.307	12116.34
235.685	12329.17
236.062	12635.11
236.439	12773.69
236.816	13104.77
237.194	13399.72
237.571	13649.2
237.948	13807.6
238.325	14131.57
238.702	14313.1
239.079	14614.69
239.456	14825.25
239.833	15031.67
240.21	15326.7
240.587	15483.05
240.964	15752.29
241.341	16035.43
241.718	16356.98
242.095	16380.27
242.472	16656.68
242.849	16921.75
243.225	17234.34
243.602	17422.91
243.979	17557.55
244.356	17716.11
244.732	18096.21
245.109	18366.04
245.486	18430.89
245.862	18627.85
246.239	19027.23
246.615	19109.98
246.992	19406.65
247.368	19420.43
247.745	19765.68
248.121	20051.51
248.497	20129.96
248.874	20389.59
249.25	20766.87
249.626	20849.19
250.003	21109.62
250.379	21540.44
250.755	21516.62
251.131	21835.35
251.507	21907.05
251.884	22224.48
252.26	22226.45
252.636	22650.1
253.012	22829.51
253.388	22980.93
253.764	23183.39
254.14	23307.31
254.516	23384.12
254.892	23635.64
255.268	23698.94
255.643	23912.17
256.019	23960.51
256.395	24073.63
256.771	24441.44
257.147	24509.9
257.522	24600.44
257.898	24694.17
258.274	24835.02
258.649	24877.96
259.025	25166.05
259.4	25205.8
259.776	25374.64
260.151	25217.09
260.527	25455.63
260.902	25606.8
261.278	25727.55
261.653	25741.05
262.028	25703.5
262.404	25952.86
262.779	26095.23
263.154	26199.3
263.53	26354.69
263.905	26264.35
264.28	26303.14
264.655	26468.35
265.03	26317.13
265.405	26504.68
265.781	26453.13
266.156	26521.13
266.531	26814.52
266.906	26531.69
267.281	26807.16
267.655	26618.6
268.03	26599.69
268.405	26681.2
268.78	26692.99
269.155	26822.62
269.53	26648.8
269.904	26719.26
270.279	26695.44
270.654	26857.98
271.029	26766.4
271.403	26928.21
271.778	26785.55
272.152	26744.3
272.527	26800.77
272.901	27021.27
273.276	27154.36
273.65	26993.77
274.025	27143.8
274.399	26894.57
274.774	27028.39
275.148	27209.12
275.522	27072.83
275.897	27110.9
276.271	27065.47
276.645	27231.47
277.019	27388.16
277.393	27545.1
277.768	27294.59
278.142	27357.7
278.516	27269.54
278.89	27385.46
279.264	27218.46
279.638	27491.56
280.012	27402.89
280.386	27126.12
280.76	27341
281.133	27248.42
281.507	27299.5
281.881	27432.12
282.255	27362.62
282.629	27211.58
283.002	27189.23
283.376	27345.67
283.75	27167.87
284.123	27365.32
284.497	27272.73
284.87	27223.86
285.244	27331.18
285.618	27198.07
285.991	26976.58
286.364	27003.34
286.738	27020.04
287.111	27003.83
287.485	26980.02
287.858	26786.29
288.231	26887.2
288.605	26747
288.978	26868.05
289.351	26597.48
289.724	26606.08
290.097	26549.37
290.47	26385.38
290.843	26410.66
291.217	26406.98
291.59	26051.54
291.963	26173.53
292.336	26013.74
292.708	25921.45
293.081	25690.98
293.454	25925.37
293.827	25778.36
294.2	25451.7
294.573	25621.04
294.945	25327.03
295.318	25352.55
295.691	25235.25
296.064	25148.63
296.436	25189.61
296.809	25330.96
297.181	25066.42
297.554	24995.01
297.926	24960.17
298.299	24911.58
298.671	25134.39
299.044	24865.45
299.416	24794.29
299.788	24875.26
300.161	24661.29
300.533	24733.43
300.905	24925.81
301.278	24824.22
301.65	24882.63
302.022	24776.87
302.394	24699.33
302.766	24771.22
303.138	24579.58
303.51	24709.88
303.882	24773.68
304.254	24678.22
304.626	24828.64
304.998	24844.84
305.37	24570.75
305.742	24757.24
306.114	24779.81
306.485	24769.99
306.857	24806.56
307.229	24635.28
307.601	24650.01
307.972	24702.03
308.344	24765.33
308.716	24563.63
309.087	24626.94
309.459	24553.82
309.83	24548.91
310.202	24630.62
310.573	24603.63
310.945	24639.7
311.316	24407.58
311.687	24606.57
312.059	24437.02
312.43	24528.3
312.801	24358.5
313.172	24331.02
313.544	24283.42
313.915	24597.74
314.286	24388.19
314.657	24499.35
315.028	24398.99
315.399	24418.13
315.77	24490.27
316.141	24290.78
316.512	24301.08
316.883	24206.37
317.254	24258.39
317.625	23965.42
317.996	24233.36
318.366	24116.81
318.737	24168.83
319.108	24006.15
319.478	23993.64
319.849	24019.89
320.22	23976.21
320.59	24007.13
320.961	23928.37
321.331	23925.67
321.702	23688.64
322.072	23549.51
322.443	23646.68
322.813	23738.2
323.184	23609.13
323.554	23463.38
323.924	23491.11
324.295	23268.3
324.665	23237.87
325.035	23302.16
325.405	23114.92
325.775	22895.04
326.145	22942.16
326.515	22860.92
326.886	22634.64
327.256	22594.63
327.626	22320.71
327.995	22213.93
328.365	22154.76
328.735	21936.51
329.105	21471.43
329.475	21140.58
329.845	20544.46
330.215	20701.75
330.584	21108.89
330.954	22145.44
331.324	23449.39
331.693	24277.77
332.063	24811.71
332.432	25071.82
332.802	24667.43
333.171	24034.61
333.541	23164.25
333.91	22932.59
334.28	22673.91
334.649	22544.81
335.018	22393.61
335.388	22251.48
335.757	22246.82
336.126	22089.46
336.495	22241.17
336.865	22059.76
337.234	21813.99
337.603	21904.84
337.972	21805.89
338.341	21879.06
338.71	21910.49
339.079	21754.08
339.448	21824.55
339.817	21718.72
340.186	21692.94
340.554	21751.63
340.923	21662.74
341.292	21623.69
341.661	21571.38
342.029	21648
342.398	21591.77
342.767	21428.45
343.135	21462.35
343.504	21330.95
343.872	21492.31
344.241	21393.82
344.609	21226.55
344.978	21271.26
345.346	21433.86
345.715	21270.77
346.083	21177.92
346.451	21246.94
346.82	21106.92
347.188	21188.48
347.556	20973.03
347.924	21025.36
348.292	20931.51
348.66	20969.83
349.028	20918.48
349.396	20755.82
349.764	20809.39
350.132	20831.99
350.5	20765.15
350.868	20690.94
351.236	20724.85
351.604	20565.59
351.972	20519.88
352.34	20461.13
352.707	20443.92
353.075	20433.84
353.443	20341.66
353.81	20241.59
354.178	20219.46
354.545	20319.53
354.913	20148.4
355.28	20143.48
355.648	20229.54
356.015	20159.46
356.383	20206.18
356.75	20104.13
357.117	20082.49
357.485	20054.95
357.852	19781.43
358.219	19979.94
358.586	19987.32
358.954	19821.04
359.321	19917.96
359.688	19724.11
360.055	19781.18
360.422	19724.84
360.789	19657.92
361.156	19693.6
361.523	19536.11
361.89	19584.59
362.256	19743.3
362.623	19356.93
362.99	19544.72
363.357	19387.2
363.724	19371.7
364.09	19451.2
364.457	19165.14
364.823	19415.02
365.19	19358.65
365.557	19420.19
365.923	19293.41
366.29	19174
366.656	19334.03
367.022	19383.76
367.389	19212.66
367.755	19032.4
368.121	19049.15
368.488	19102.1
368.854	18959.25
369.22	18783.1
369.586	18657.18
369.952	18577.57
370.318	18561.3
370.684	18454.81
371.051	18445.93
371.416	18221.28
371.782	18332.01
372.148	18258.03
372.514	18181.07
372.88	18075.97
373.246	18110.52
373.612	18128.77
373.977	18212.15
374.343	18329.05
374.709	18449.87
375.074	18341.14
375.44	18186.25
375.806	17988.38
376.171	18172.93
376.537	18207.46
376.902	18144.81
377.268	18296.01
377.633	18364.56
377.998	18507.32
378.364	18669.75
378.729	18608.38
379.094	18447.9
379.459	17964.69
379.825	18126.3
380.19	18071.53
380.555	17821.53
380.92	17385.6
381.285	17452.81
381.65	17728.94
382.015	17678.08
382.38	17542.73
382.745	17330.74
383.11	17238.54
383.474	17341.86
383.839	17280.56
384.204	17170.55
384.569	17129.51
384.933	17031.08
385.298	16978.89
385.663	17076.34
386.027	17147.81
386.392	17295.64
386.756	17471.34
387.121	17481.71
387.485	17589.91
387.849	17755.86
388.214	17368.3
388.578	17194.78
388.942	17020.69
389.307	17051.36
389.671	16925.95
390.035	17080.55
390.399	17160.17
390.763	17363.36
391.127	17488.14
391.492	17978.01
391.856	18398.34
392.219	18674.43
392.583	18461.96
392.947	17688.7
393.311	17365.09
393.675	17259.3
394.039	17045.92
394.403	17027.37
394.766	16933.62
395.13	16842.82
395.494	16854.69
395.857	17001.4
396.221	17154.98
396.584	17413.52
396.948	17794.37
397.311	18329.05
397.675	18527.53
398.038	18508.55
398.401	17992.57
398.765	17448.11
399.128	16959.6
399.491	16704.21
399.854	16656.68
400.218	16560.36
400.581	16466.73
400.944	16307.17
401.307	15922.3
401.67	16016.08
402.033	15924.04
402.396	15907.42
402.759	15869.94
403.122	16027.24
403.485	16036.92
403.847	16308.65
404.21	16480.11
404.573	16517.76
404.936	16683.42
405.298	16324.76
405.661	15878.13
406.023	15438.81
406.386	15331.67
406.749	15193.9
407.111	15234.44
407.473	15735.41
407.836	15782.82
408.198	15978.13
408.561	15887.81
408.923	15842.15
409.285	15784.81
409.647	15512.61
410.009	15224
410.372	15269.01
410.734	15117.03
411.096	15170.52
411.458	15177.98
411.82	15379.16
412.182	15615.21
412.544	15545.41
412.906	15600.31
413.267	15489.01
413.629	15247.63
413.991	15104.84
414.353	15021.46
414.714	14709.4
415.076	14782.16
415.438	14813.8
415.799	14932.09
416.161	14673.01
416.522	14552.35
416.884	14533.65
417.245	14426.39
417.607	14497.24
417.968	14529.41
418.329	14565.32
418.691	14574.54
419.052	14594.49
419.413	14860.37
419.774	14953.01
420.135	15641.54
420.497	16147.03
420.858	16601.96
421.219	16490.51
421.58	16078.09
421.941	15528.27
422.302	15120.26
422.662	14991.35
423.023	14860.37
423.384	14761.73
423.745	14942.05
424.106	14959.48
424.466	15018.48
424.827	14612.94
425.187	14250.69
425.548	13985.89
425.909	13839.87
426.269	14037.87
426.63	14230.97
426.99	14468.3
427.35	14340.8
427.711	14547.12
428.071	14794.61
428.431	15377.42
428.792	16487.54
429.152	17433.78
429.512	17500.24
429.872	17260.79
430.232	16667.82
430.592	15761.47
430.952	14871.08
431.312	14158.54
431.672	13838.62
432.032	13924.14
432.392	14309.11
432.752	15828.74
433.111	16560.61
433.471	16054.78
433.831	14867.85
434.19	14864.36
434.55	14870.09
434.91	14529.41
435.269	14938.32
435.629	15004.54
435.988	15133.95
436.348	14681.49
436.707	14244.7
437.066	14260.18
437.426	14604.71
437.785	14686.72
438.144	14723.11
438.503	14341.8
438.862	14288.39
439.222	14062.61
439.581	13942.14
439.94	14340.55
440.299	15357.78
440.658	16169.59
441.017	16158.19
441.376	15786.55
441.734	15466.15
442.093	15478.57
442.452	15702.13
442.811	15839.91
443.169	15850.59
443.528	15211.81
443.887	15191.17
444.245	15057.8
444.604	14809.06
444.962	14668.03
445.321	14639.61
445.679	14793.62
446.038	14901.22
446.396	14497.99
446.754	14108.34
447.112	13965.89
447.471	13933.14
447.829	13787.84
448.187	13836.37
448.545	13920.89
448.903	13848.62
449.261	13768.07
449.619	13510.72
449.977	13379.92
450.335	13091.47
450.693	13026.95
451.051	13078.92
451.409	12977.23
451.766	12944.57
452.124	12589.31
452.482	12344.04
452.839	12073.44
453.197	12031.54
453.555	11933.32
453.912	11996.96
454.27	12385.36
454.627	12684.16
454.984	12625.3
455.342	12247.75
455.699	11979.79
456.056	12124.16
456.414	12344.79
456.771	12809.89
457.128	12909.4
457.485	13000.33
457.842	12841.81
458.199	12872.47
458.556	13125.35
458.913	13125.1
459.27	13275.87
459.627	12898.6
459.984	13089.46
460.341	13123.84
460.697	12817.18
461.054	12094.64
461.411	11611.73
461.767	11343.02
462.124	11400.29
462.481	11678.28
462.837	12049.72
463.194	12570.69
463.55	12410.8
463.907	13089.21
464.263	13457.36
464.619	13981.89
464.976	14377.49
465.332	14384.73
465.688	13541.03
466.044	12618.76
466.4	12235.14
466.756	12076.22
467.112	12076.47
467.468	12112.31
467.824	11867.64
468.18	11563.65
468.536	11544.41
468.892	11184.77
469.248	11086.29
469.604	10954.21
469.959	10962.08
470.315	10974.03
470.671	10996.13
471.026	11184.26
471.382	11401.56
471.737	11587.44
472.093	11957.82
472.448	12430.7
472.804	12645.68
473.159	12856.13
473.514	12726.67
473.87	13097.49
474.225	13879.63
474.58	14443.86
474.935	14201.5
475.29	13826.36
475.645	13798.6
476	13763.32
476.355	13518.98
476.71	13535.01
477.065	14359.52
477.42	14746.03
477.775	14710.65
478.13	14449.6
478.485	14661.3
478.839	15018.48
479.194	15818.82
479.549	16213.97
479.903	16127.69
480.258	15876.64
480.612	16298.74
480.967	17079.06
481.321	16969.74
481.675	16333.93
482.03	15772.15
482.384	15640.05
482.738	15942.15
483.093	16177.03
483.447	16902.7
483.801	18009.11
484.155	18476.99
484.509	24367.09
484.863	52449.51
485.217	63493.75
485.571	60333.5
485.925	37179.49
486.279	27650.23
486.632	23635.64
486.986	20226.59
487.34	17748.45
487.694	16796.79
488.047	16607.66
488.401	16564.82
488.754	16355.74
489.108	15833.96
489.461	15681.03
489.815	15358.28
490.168	15702.13
490.522	15835.94
490.875	15787.79
491.228	15572.24
491.581	15787.54
491.935	15670.85
492.288	15541.93
492.641	15764.2
492.994	15787.29
493.347	16234.54
493.7	16209.26
494.053	16098.43
494.406	15589.63
494.759	14972.43
495.111	15952.82
495.464	17450.58
495.817	18098.18
496.169	17123.33
496.522	15675.81
496.875	14678.75
497.227	14392.71
497.58	14442.86
497.932	14787.89
498.285	15061.54
498.637	15840.66
498.989	16199.34
499.342	15961.75
499.694	15278.71
500.046	15019.72
500.398	15783.32
500.751	16075.36
501.103	16178.52
501.455	16129.18
501.807	16081.07
502.159	16063.95
502.511	16144.3
502.862	16006.41
503.214	15577.95
503.566	14965.46
503.918	14647.09
504.27	14678.5
504.621	14607.46
504.973	14444.36
505.324	14633.13
505.676	15157.08
506.027	15075.97
506.379	14119.58
506.73	13699.01
507.082	13895.89
507.433	14425.65
507.784	14670.27
508.136	14171.78
508.487	13885.64
508.838	13629.17
509.189	13659.46
509.54	14032.38
509.891	13713.52
510.242	13683.24
510.593	13510.97
510.944	13361.37
511.295	12821.95
511.646	12542.75
511.996	12805.36
512.347	13000.33
512.698	12914.93
513.049	12757.35
513.399	12639.89
513.75	12715.85
514.1	12246.74
514.451	11752.88
514.801	11856.77
515.152	12069.15
515.502	12452.11
515.852	12586.8
516.202	12620.52
516.553	12259.35
516.903	11893.66
517.253	11542.63
517.603	11546.69
517.953	11659.56
518.303	12226.57
518.653	12429.19
519.003	12240.19
519.353	11409.16
519.703	10939.98
520.052	10828.37
520.402	10948.36
520.752	11203.03
521.102	10848.21
521.451	10695.05
521.801	10756.13
522.15	11121.32
522.5	11157.11
522.849	11227.13
523.199	11441.84
523.548	11664.62
523.897	11399.03
524.246	11028.39
524.596	10722.28
524.945	10847.95
525.294	10849.99
525.643	10898.04
525.992	10934.89
526.341	11072.07
526.69	10899.31
527.039	10689.45
527.388	10540.97
527.737	11212.42
528.086	12084.8
528.434	12538.98
528.783	11880.27
529.132	11440.07
529.48	11150.76
529.829	11028.39
530.177	10804.97
530.526	10751.55
530.874	10959.04
531.223	10990.29
531.571	10802.94
531.919	11017.98
532.268	11722.54
532.616	12509.02
532.964	12888.05
533.312	12874.23
533.66	12758.35
534.008	12816.17
534.356	12798.83
534.704	12568.93
535.052	12237.16
535.4	11735.44
535.748	11195.68
536.095	10648.97
536.443	10622.23
536.791	11086.03
537.139	11614.52
537.486	12170.83
537.834	12300.69
538.181	12443.04
538.529	12303.97
538.876	12367.97
539.223	11960.09
539.571	11464.39
539.918	11546.18
540.265	12015.39
540.613	12439.77
540.96	12137.54
541.307	12093.63
541.654	12099.94
542.001	12025.23
542.348	12030.03
542.695	11999.99
543.042	12377.3
543.388	12696.74
543.735	12732.45
544.082	12771.68
544.429	12655.24
544.775	12116.09
545.122	11428.67
545.469	11064.2
545.815	11193.65
546.162	11374.19
546.508	11856.27
546.854	12786.76
547.201	13777.33
547.547	13857.63
547.893	13255.81
548.24	11942.41
548.586	11007.82
548.932	10687.41
549.278	10672.14
549.624	10786.91
549.97	10587.59
550.316	10176.89
550.662	9970.33
551.008	11087.56
551.353	12374.02
551.699	12939.55
552.045	12269.18
552.391	11775.38
552.736	11667.9
553.082	11632.99
553.427	11231.7
553.773	10522.62
554.118	10520.58
554.464	11081.21
554.809	12015.89
555.154	12345.3
555.5	12288.59
555.845	11385.09
556.19	10790.73
556.535	10321.15
556.88	10661.45
557.225	10740.1
557.57	10332.13
557.915	9793.17
558.26	9555.48
558.605	9622.96
558.95	10061.12
559.295	11225.87
559.639	12120.38
559.984	13102.01
560.329	13198.62
560.673	13106.78
561.018	12369.49
561.362	11734.93
561.707	11167.51
562.051	11444.38
562.395	11752.38
562.74	12232.62
563.084	12540.23
563.428	13080.42
563.772	12959.64
564.117	13150.95
564.461	13234.24
564.805	13006.36
565.149	13126.86
565.493	13086.45
565.836	13603.88
566.18	14010.13
566.524	16111.07
566.868	17010.8
567.212	17604.73
567.555	18057.96
567.899	19854.98
568.242	21581.21
568.586	24643.87
568.929	28126.82
569.273	31465.54
569.616	31376.4
569.96	32682.83
570.303	34812.12
570.646	35692.54
570.989	38009.74
571.333	37080.05
571.676	34455.44
572.019	29467.16
572.362	33097.22
572.705	38418.33
573.048	42402.87
573.391	45310.5
573.733	46594.83
574.076	47640.89
574.419	44863.03
574.762	40437.82
575.104	35288.93
575.447	36260.4
575.789	41039.21
576.132	45980.96
576.474	47025.99
576.817	54951.55
577.159	61467.25
577.501	60506.11
577.844	52819.96
578.186	41980.8
578.528	38749.05
578.87	38411.39
579.212	41106.1
579.554	43862.47
579.896	43331.1
580.238	48792.3
580.58	63202.16
580.922	68423.1
581.264	68423.1
581.606	62770.62
581.947	55708.75
582.289	45131.64
582.631	36680.41
582.972	32213.37
