Data from FLMS007011_10-46-24-749.txt Node
Date: Thu Apr 21 10:46:24 MDT 2016
User: lab_user
Spectrometer: FLMS00701
Autoset integration time: false
Trigger mode: 0
Integration Time (sec): 5.000000E-3
Scans to average: 10
Electric dark correction enabled: true
Nonlinearity correction enabled: true
Boxcar width: 0
XAxis mode: Wavelengths
Stop averaging: false
Number of Pixels in Spectrum: 2048
>>>>>Begin Spectral Data<<<<<
178.41	36.57
178.791	36.57
179.172	36.57
179.553	-58
179.934	-58.29
180.316	-64.87
180.697	-77.16
181.078	-73.45
181.459	-32.85
181.84	-39.71
182.221	-40.85
182.602	-7.13
182.983	12.59
183.364	27.44
183.744	49.14
184.125	51.71
184.506	83.1
184.887	118.19
185.268	156.97
185.648	141.86
186.029	182.62
186.41	198.86
186.791	204.27
187.171	267.2
187.552	428.95
187.932	457.34
188.313	470.11
188.694	477.21
189.074	476.64
189.455	519.76
189.835	546.13
190.216	569.09
190.596	595.44
190.977	588.64
191.357	641.03
191.737	681.22
192.118	665.94
192.498	685.18
192.878	703.29
193.258	704.7
193.639	710.08
194.019	731.85
194.399	764.64
194.779	764.93
195.159	771.71
195.54	796.01
195.92	797.7
196.3	821.15
196.68	840.91
197.06	815.5
197.44	854.46
197.82	853.05
198.2	882.96
198.58	899.61
198.959	886.91
199.339	902.99
199.719	957.13
200.099	975.45
200.479	986.72
200.858	1015.74
201.238	1035.45
201.618	1057.69
201.998	1069.23
202.377	1087.52
202.757	1137.86
203.136	1144.61
203.516	1175.25
203.896	1211.77
204.275	1199.13
204.655	1247.72
205.034	1255.58
205.414	1325.16
205.793	1355.72
206.172	1349.83
206.552	1369.45
206.931	1431.93
207.31	1447.05
207.69	1505.54
208.069	1533.79
208.448	1573.49
208.827	1601.71
209.207	1661.2
209.586	1681.58
209.965	1764.98
210.344	1775.57
210.723	1835.48
211.102	1907.3
211.481	1980.44
211.86	1972.1
212.239	2040.19
212.618	2108.76
212.997	2193.08
213.376	2207.49
213.755	2275.91
214.134	2339.02
214.513	2436.62
214.891	2497.39
215.27	2564.73
215.649	2658.74
216.028	2713.55
216.406	2797.76
216.785	2929.67
217.164	2945.04
217.542	3070.13
217.921	3155.87
218.3	3274.61
218.678	3360.14
219.057	3463.85
219.435	3556.26
219.814	3683.39
220.192	3781.53
220.57	3926.22
220.949	4029.77
221.327	4138.05
221.705	4290.77
222.084	4431.62
222.462	4626.6
222.84	4684.42
223.218	4861.4
223.597	5029.19
223.975	5188.65
224.353	5332.62
224.731	5558.66
225.109	5709.49
225.487	5882.9
225.865	6098.1
226.243	6321
226.621	6530.49
226.999	6679.82
227.377	6929.26
227.755	7085.35
228.133	7353.95
228.511	7503.15
228.889	7751.96
229.266	7913.62
229.644	8288.38
230.022	8515.29
230.4	8629.61
230.777	8841.43
231.155	9187.8
231.533	9366.03
231.91	9596.62
232.288	9900.8
232.665	10080.89
233.043	10379.16
233.42	10553.28
233.798	10794.12
234.175	11039.14
234.553	11289.86
234.93	11496.38
235.307	11780.02
235.685	11990.73
236.062	12194.37
236.439	12448.67
236.816	12736.56
237.194	13066.95
237.571	13281.47
237.948	13495.02
238.325	13756.9
238.702	13911.72
239.079	14187.35
239.456	14356.61
239.833	14672.1
240.21	14961.06
240.587	15122.09
240.964	15465.49
241.341	15665.71
241.718	15885.16
242.095	16014.68
242.472	16227.44
242.849	16527.5
243.225	16807.02
243.602	16983.43
243.979	17115.5
244.356	17302.89
244.732	17704.58
245.109	17908
245.486	18029.92
245.862	18257.86
246.239	18541.91
246.615	18753.62
246.992	18963.02
247.368	19061.79
247.745	19431.59
248.121	19736.24
248.497	19697.12
248.874	20008.3
249.25	20251.26
249.626	20438.6
250.003	20612.37
250.379	20955.17
250.755	21121.25
251.131	21307.69
251.507	21466.6
251.884	21798.36
252.26	21900.75
252.636	22159.76
253.012	22346.56
253.388	22659.27
253.764	22883.09
254.14	22766.76
254.516	23038.19
254.892	23107.15
255.268	23355
255.643	23459.78
256.019	23721.6
256.395	23688.23
256.771	24001.32
257.147	24099.23
257.522	24195.41
257.898	24404.22
258.274	24468.02
258.649	24541.39
259.025	24664.07
259.4	24823.08
259.776	24946.75
260.151	25083.92
260.527	25057.91
260.902	25270.92
261.278	25395.09
261.653	25298.65
262.028	25396.07
262.404	25604.43
262.779	25636.83
263.154	25906.56
263.53	26003.26
263.905	25796.36
264.28	25860.17
264.655	25984.85
265.03	25759.79
265.405	26086.72
265.781	26053.83
266.156	26158.15
266.531	26253.63
266.906	26127.22
267.281	26392.58
267.655	26179.99
268.03	26208.22
268.405	26168.21
268.78	26322.37
269.155	26455.91
269.53	26319.67
269.904	26399.94
270.279	26406.08
270.654	26464.26
271.029	26295.61
271.403	26412.95
271.778	26375.88
272.152	26325.56
272.527	26410.25
272.901	26622.85
273.276	26708.29
273.65	26791.28
274.025	26776.06
274.399	26508.94
274.774	26703.14
275.148	26850.7
275.522	26715.66
275.897	26793.98
276.271	26702.15
276.645	27045.41
277.019	27002.2
277.393	27052.04
277.768	26923.87
278.142	26941.3
278.516	26846.28
278.89	26984.76
279.264	26789.31
279.638	27000.23
280.012	26883.84
280.386	26717.38
280.76	26822.71
281.133	26899.07
281.507	26772.62
281.881	27045.91
282.255	27015.46
282.629	26951.61
283.002	26788.33
283.376	26819.02
283.75	26722.29
284.123	26871.08
284.497	26785.88
284.87	26919.94
285.244	26973.22
285.618	26665.57
285.991	26559.51
286.364	26642.74
286.738	26664.34
287.111	26819.02
287.485	26553.13
287.858	26536.44
288.231	26421.54
288.605	26369.01
288.978	26378.34
289.351	26192.02
289.724	26167.72
290.097	26070.52
290.47	26008.91
290.843	26048.92
291.217	25966.45
291.59	25579.89
291.963	25788.5
292.336	25648.85
292.708	25453.99
293.081	25574.24
293.454	25572.53
293.827	25330.55
294.2	25117.54
294.573	25165.64
294.945	24872.89
295.318	25019.14
295.691	25005.89
296.064	24793.39
296.436	24716.83
296.809	24871.66
297.181	24718.55
297.554	24570.59
297.926	24641.99
298.299	24586.04
298.671	24692.54
299.044	24681.25
299.416	24503.6
299.788	24450.6
300.161	24321.29
300.533	24400.05
300.905	24467.04
301.278	24495.5
301.65	24586.78
302.022	24440.54
302.394	24367.42
302.766	24413.3
303.138	24200.07
303.51	24300.68
303.882	24422.38
304.254	24284.24
304.626	24420.66
304.998	24508.75
305.37	24187.31
305.742	24418.7
306.114	24380.91
306.485	24407.41
306.857	24389.01
307.229	24340.18
307.601	24351.96
307.972	24356.37
308.344	24222.65
308.716	24271.48
309.087	24121.56
309.459	24134.07
309.83	24219.7
310.202	24253.32
310.573	24323.5
310.945	24271.23
311.316	24020.71
311.687	24133.58
312.059	24182.41
312.43	24102.91
312.801	24126.46
313.172	23979.49
313.544	23965.01
313.915	24163.02
314.286	24030.77
314.657	24055.31
315.028	24019.97
315.399	23934.83
315.77	24011.87
316.141	23929.18
316.512	23960.59
316.883	23786.13
317.254	23878.64
317.625	23649.95
317.996	23748.59
318.366	23798.65
318.737	23783.19
319.108	23706.63
319.478	23510.82
319.849	23673.26
320.22	23662.46
320.59	23617.07
320.961	23378.56
321.331	23644.55
321.702	23249.73
322.072	23219.54
322.443	23239.67
322.813	23256.6
323.184	23217.58
323.554	23065.43
323.924	23064.45
324.295	23035.74
324.665	22807.75
325.035	22839.41
325.405	22757.93
325.775	22671.05
326.145	22572.63
326.515	22455.06
326.886	22333.06
327.256	22192.16
327.626	22008.53
327.995	21810.88
328.365	21717.09
328.735	21487.48
329.105	21113.15
329.475	20730.34
329.845	20438.84
330.215	20622.45
330.584	21248.99
330.954	22007.79
331.324	23038.19
331.693	23469.1
332.063	23939.98
332.432	24298.71
332.802	24089.9
333.171	23701.48
333.541	22912.54
333.91	22632.51
334.28	22278.57
334.649	22160
335.018	22012.95
335.388	21955.74
335.757	21919.16
336.126	21688.36
336.495	21771.84
336.865	21708.25
337.234	21518.42
337.603	21492.39
337.972	21413.55
338.341	21596.02
338.71	21467.83
339.079	21410.36
339.448	21384.57
339.817	21299.1
340.186	21313.59
340.554	21399.55
340.923	21310.89
341.292	21107.5
341.661	21188.81
342.029	21265.45
342.398	21162.03
342.767	21028.39
343.135	21085.88
343.504	20888.1
343.872	21219.76
344.241	21059.34
344.609	21000.14
344.978	21024.7
345.346	21055.91
345.715	20988.59
346.083	20851.98
346.451	20826.42
346.82	20782.68
347.188	20756.39
347.556	20640.39
347.924	20692.99
348.292	20553.14
348.66	20674.31
349.028	20511.36
349.396	20473.75
349.764	20459.74
350.132	20400.98
350.5	20486.78
350.868	20332.64
351.236	20354.28
351.604	20254.95
351.972	20299.7
352.34	19996.5
352.707	20154.87
353.075	20154.38
353.443	19999.45
353.81	19865.89
354.178	19847.69
354.545	19919.27
354.913	19928.61
355.28	19739.93
355.648	19875.73
356.015	19911.64
356.383	19870.32
356.75	19703.27
357.117	19767
357.485	19697.12
357.852	19565.23
358.219	19656.28
358.586	19551.94
358.954	19503.71
359.321	19358.73
359.688	19497.8
360.055	19427.65
360.422	19478.6
360.789	19267.89
361.156	19438.24
361.523	19213.48
361.89	19157.09
362.256	19318.11
362.623	19037.16
362.99	19042.83
363.357	18994.8
363.724	19076.81
364.09	19010.81
364.457	18996.77
364.823	19091.59
365.19	18911.05
365.557	19057.85
365.923	19027.06
366.29	18915.48
366.656	19089.37
367.022	19125.82
367.389	18871.39
367.755	18721.83
368.121	18749.18
368.488	18747.21
368.854	18717.39
369.22	18411
369.586	18325.19
369.952	18163.14
370.318	18151.8
370.684	18311.63
371.051	18143.9
371.416	17994.63
371.782	18045.96
372.148	17991.42
372.514	17875.42
372.88	17830
373.246	17816.92
373.612	18000.31
373.977	17980.56
374.343	18055.08
374.709	18163.64
375.074	17971.93
375.44	17876.16
375.806	17766.31
376.171	17811
376.537	17748.04
376.902	17846.3
377.268	18049.16
377.633	18080.74
377.998	18317.05
378.364	18517.01
378.729	18352.32
379.094	18209.52
379.459	17792.73
379.825	17695.94
380.19	17832.97
380.555	17461.29
380.92	17303.14
381.285	17217.11
381.65	17348.86
382.015	17349.35
382.38	17246.28
382.745	17088.29
383.11	17055.4
383.474	17061.34
383.839	16982.93
384.204	16928.01
384.569	16883.23
384.933	16790.93
385.298	16638.19
385.663	16584.96
386.027	16833
386.392	17003.46
386.756	17146.4
387.121	17204.01
387.485	17380.98
387.849	17444.74
388.214	17117.97
388.578	16981.94
388.942	16733.01
389.307	16787.71
389.671	16757.02
390.035	16837.21
390.399	16901.29
390.763	17063.07
391.127	17350.09
391.492	17783.1
391.856	18119.23
392.219	18387.33
392.583	18151.8
392.947	17444.74
393.311	17042.05
393.675	17018.8
394.039	16939.89
394.403	16812.21
394.766	16597.59
395.13	16589.91
395.494	16636.71
395.857	16689.2
396.221	16866.16
396.584	17193.13
396.948	17565.79
397.311	18099.25
397.675	18300.53
398.038	18194.47
398.401	17447.95
398.765	17066.28
399.128	16680.53
399.491	16468.06
399.854	16303.53
400.218	16392.25
400.581	16169.67
400.944	16003.02
401.307	15662.49
401.67	15784.89
402.033	15594.93
402.396	15668.69
402.759	15680.37
403.122	15750.88
403.485	15819.15
403.847	16084.87
404.21	16258.92
404.573	16458.39
404.936	16362.76
405.298	15895.59
405.661	15555.93
406.023	15242.24
406.386	15075.31
406.749	14995.66
407.111	15029.76
407.473	15488.84
407.836	15587.23
408.198	15678.88
408.561	15651.06
408.923	15598.9
409.285	15507.48
409.647	15137.76
410.009	14886.11
410.372	15041.21
410.734	14872.41
411.096	14913.5
411.458	14991.68
411.82	15144.98
412.182	15374.77
412.544	15327.53
412.906	15284.02
413.267	15250.2
413.629	14991.18
413.991	14835.8
414.353	14789.71
414.714	14502.56
415.076	14558.67
415.438	14621.75
415.799	14685.06
416.161	14397.29
416.522	14300.95
416.884	14296.96
417.245	14289.72
417.607	14173.11
417.968	14167.37
418.329	14356.36
418.691	14343.63
419.052	14472.38
419.413	14608.29
419.774	14680.08
420.135	15373.77
420.497	15977.22
420.858	16308.74
421.219	16259.17
421.58	15757.34
421.941	15314.85
422.302	14775.02
422.662	14745.86
423.023	14570.64
423.384	14568.15
423.745	14696.77
424.106	14761.31
424.466	14851.24
424.827	14446.93
425.187	13947.23
425.548	13797.43
425.909	13693.59
426.269	13881.22
426.63	14000.72
426.99	14293.71
427.35	14037.96
427.711	14241.04
428.071	14551.19
428.431	15089.99
428.792	16346.65
429.152	17182.5
429.512	17175.33
429.872	16916.63
430.232	16385.06
430.592	15438.15
430.952	14526
431.312	13982.47
431.672	13628
432.032	13652.03
432.392	14304.2
432.752	15570.58
433.111	16284.7
433.471	15644.6
433.831	14576.87
434.19	14607.54
434.55	14622.25
434.91	14225.06
435.269	14703
435.629	14810.39
435.988	14888.1
436.348	14409.76
436.707	13998.22
437.066	14014.22
437.426	14362.35
437.785	14457.41
438.144	14473.38
438.503	14162.12
438.862	14029.71
439.222	13744.14
439.581	13754.4
439.94	14166.37
440.299	15246.47
440.658	15948.69
441.017	15891.62
441.376	15560.65
441.734	15209.9
442.093	15209.66
442.452	15378.49
442.811	15634.17
443.169	15479.9
443.528	15002.88
443.887	14960.06
444.245	14750.1
444.604	14514.03
444.962	14266.5
445.321	14498.82
445.679	14478.61
446.038	14635.21
446.396	14314.18
446.754	13928.73
447.112	13736.13
447.471	13740.13
447.829	13486.75
448.187	13624
448.545	13728.12
448.903	13598.96
449.261	13508.05
449.619	13308.05
449.977	13197.95
450.335	12880.09
450.693	12906.72
451.051	12790.62
451.409	12791.37
451.766	12748.38
452.124	12350.17
452.482	12046.27
452.839	12039.2
453.197	11805.8
453.555	11747.15
453.912	11759.29
454.27	12226.91
454.627	12480.9
454.984	12325.72
455.342	12027.34
455.699	11863.43
456.056	11932.65
456.414	12207.24
456.771	12618.34
457.128	12648.78
457.485	12762.46
457.842	12662.11
458.199	12662.36
458.556	13002.17
458.913	12868.78
459.27	13128.19
459.627	12685.25
459.984	12828.07
460.341	12965.76
460.697	12494.75
461.054	11783.31
461.411	11381.63
461.767	11150.85
462.124	11250.81
462.481	11542.21
462.837	11837.14
463.194	12320.43
463.55	12284.89
463.907	12895.92
464.263	13360.45
464.619	13831.45
464.976	14218.56
465.332	14047.7
465.688	13255.39
466.044	12372.59
466.4	12029.1
466.756	11904.35
467.112	11914.46
467.468	11998.56
467.824	11682.41
468.18	11387.45
468.536	11362.11
468.892	10944.38
469.248	10940.57
469.604	10769.95
469.959	10785.22
470.315	10860.24
470.671	10882.11
471.026	11028.22
471.382	11194.49
471.737	11514.36
472.093	11749.17
472.448	12244.56
472.804	12532.01
473.159	12576.06
473.514	12639.47
473.87	12970.03
474.225	13652.03
474.58	14277.24
474.935	14003.97
475.29	13688.58
475.645	13645.78
476	13475.23
476.355	13342.65
476.71	13366.47
477.065	14126.16
477.42	14563.16
477.775	14339.14
478.13	14210.82
478.485	14481.11
478.839	14874.65
479.194	15634.17
479.549	16089.33
479.903	15902.54
480.258	15664.47
480.612	16206.12
480.967	16883.97
481.321	16777.56
481.675	15963.32
482.03	15546.49
482.384	15533.32
482.738	15607.1
483.093	16019.89
483.447	16683.5
483.801	17745.82
484.155	18083.46
484.509	25860.91
484.863	52920.48
485.217	62680.27
485.571	58233
485.925	36038.05
486.279	27067.76
486.632	23053.41
486.986	19720.5
487.34	17333.78
487.694	16545.09
488.047	16392.74
488.401	16393.49
488.754	16052.38
489.108	15667.95
489.461	15436.66
489.815	15136.77
490.168	15424.48
490.522	15563.88
490.875	15458.53
491.228	15354.38
491.581	15645.6
491.935	15394.9
492.288	15370.04
492.641	15589.22
492.994	15583.75
493.347	15957.37
493.7	15934.3
494.053	15799.79
494.406	15190
494.759	14850.99
495.111	15889.38
495.464	17194.37
495.817	17646.3
496.169	16730.04
496.522	15392.17
496.875	14430.97
497.227	14313.18
497.58	14282.23
497.932	14602.55
498.285	14706.74
498.637	15542.76
498.989	15855.14
499.342	15640.38
499.694	15024.53
500.046	14829.57
500.398	15615.55
500.751	15873.5
501.103	15901.05
501.455	15822.37
501.807	15909.24
502.159	15735.24
502.511	15948.44
502.862	15721.34
503.214	15237.01
503.566	14660.63
503.918	14382.56
504.27	14487.59
504.621	14505.3
504.973	14246.78
505.324	14508.3
505.676	14906.03
506.027	14792.95
506.379	13812.44
506.73	13509.05
507.082	13759.65
507.433	14215.32
507.784	14359.36
508.136	13958.98
508.487	13609.22
508.838	13430.38
509.189	13465.71
509.54	13738.88
509.891	13475.98
510.242	13424.36
510.593	13237.58
510.944	13053.9
511.295	12683.49
511.646	12356.22
511.996	12537.05
512.347	12770.5
512.698	12754.16
513.049	12610.03
513.399	12396.28
513.75	12445.14
514.1	12074.03
514.451	11579.68
514.801	11664.95
515.152	11944.77
515.502	12264.47
515.852	12429.78
516.202	12349.92
516.553	12065.2
516.903	11680.13
517.253	11361.86
517.603	11274.65
517.953	11495.37
518.303	12097.5
518.653	12234.72
519.003	11862.16
519.353	11187.9
519.703	10741.2
520.052	10614.42
520.402	10859.99
520.752	11009.68
521.102	10686.48
521.451	10510.47
521.801	10694.62
522.15	10864.82
522.5	10954.55
522.849	11014.76
523.199	11272.87
523.548	11395.31
523.897	11130.54
524.246	10825.15
524.596	10551.75
524.945	10679.61
525.294	10703.28
525.643	10664.33
525.992	10742.98
526.341	10854.9
526.69	10702.52
527.039	10400.07
527.388	10365.38
527.737	11044.98
528.086	11931.89
528.434	12290.44
528.783	11725.15
529.132	11345.38
529.48	11006.38
529.829	10828.46
530.177	10698.19
530.526	10598.37
530.874	10807.6
531.223	10729.75
531.571	10636.83
531.919	10820.32
532.268	11553.86
532.616	12340.84
532.964	12718.7
533.312	12698.84
533.66	12508.85
534.008	12641.99
534.356	12601.22
534.704	12450.68
535.052	11961.44
535.4	11393.03
535.748	10979.19
536.095	10389.36
536.443	10535.45
536.791	10969.54
537.139	11485.75
537.486	11895.26
537.834	12113.4
538.181	12228.42
538.529	12139.13
538.876	12104.82
539.223	11742.35
539.571	11308.62
539.918	11380.86
540.265	11897.28
540.613	12087.66
540.96	11955.88
541.307	11792.91
541.654	11871.76
542.001	11872.02
542.348	11912.19
542.695	11845.23
543.042	12148.47
543.388	12445.14
543.735	12572.79
544.082	12589.4
544.429	12508.6
544.775	11904.35
545.122	11170.13
545.469	10949.72
545.815	11005.36
546.162	11210.73
546.508	11692.02
546.854	12621.1
547.201	13552.13
547.547	13661.05
547.893	12979.57
548.24	11758.28
548.586	10721.1
548.932	10478.61
549.278	10454.65
549.624	10655.67
549.97	10479.38
550.316	10006.74
550.662	9856.26
551.008	10984.02
551.353	12259.94
551.699	12810.98
552.045	12089.68
552.391	11494.86
552.736	11333.72
553.082	11436.35
553.427	10999.77
553.773	10260.49
554.118	10335.53
554.464	10911.6
554.809	11766.87
555.154	12130.3
555.5	12103.31
555.845	11200.07
556.19	10528.82
556.535	10215.03
556.88	10611.62
557.225	10535.19
557.57	10180.55
557.915	9684.33
558.26	9464.94
558.605	9596.88
558.95	9985.5
559.295	11054.63
559.639	11988.46
559.984	12858.73
560.329	12932.85
560.673	12841.64
561.018	12142.67
561.362	11452.82
561.707	11020.85
562.051	11239.9
562.395	11500.18
562.74	12037.94
563.084	12360.5
563.428	12860.24
563.772	12698.59
564.117	13022.51
564.461	12941.89
564.805	12706.63
565.149	12969.52
565.493	12944.91
565.836	13486.5
566.18	13922.48
566.524	15914.2
566.868	16761.23
567.212	17401.74
567.555	17698.66
567.899	19684.08
568.242	21329.31
568.586	24384.84
568.929	27813.66
569.273	30800.16
569.616	31035.73
569.96	32527.39
570.303	34394.31
570.646	35356.69
570.989	37290.89
571.333	36403.6
571.676	33695.32
572.019	29216.19
572.362	32773.61
572.705	38150.95
573.048	41973.15
573.391	44757.89
573.733	45996.76
574.076	46914.26
574.419	43905.17
574.762	39685.29
575.104	34734.19
575.447	35721.04
575.789	40936.61
576.132	45203.09
576.474	46775.26
576.817	54551.31
577.159	60712.4
577.501	59532.21
577.844	51485.02
578.186	40986.58
578.528	38258.42
578.87	37882.09
579.212	40773.56
579.554	43049.38
579.896	42678.95
580.238	49056.44
580.58	62561.43
580.922	68129.6
581.264	68129.6
581.606	61714.92
581.947	54310.28
582.289	43782.6
582.631	35706.46
582.972	31952.06
583.314	32427.34
583.655	34974.66
