Data from FLMS007011_11-45-17-892.txt Node
Date: Thu Apr 21 11:45:17 MDT 2016
User: lab_user
Spectrometer: FLMS00701
Autoset integration time: false
Trigger mode: 0
Integration Time (sec): 5.000000E-3
Scans to average: 10
Electric dark correction enabled: true
Nonlinearity correction enabled: true
Boxcar width: 0
XAxis mode: Wavelengths
Stop averaging: false
Number of Pixels in Spectrum: 2048
>>>>>Begin Spectral Data<<<<<
178.41	37.03
178.791	37.03
179.172	37.03
179.553	-48.68
179.934	-52.97
180.316	-53.54
180.697	-77.56
181.078	-60.4
181.459	-59.54
181.84	-47.25
182.221	-32.39
182.602	-4.1
182.983	4.19
183.364	34.75
183.744	48.17
184.125	45.31
184.506	76.71
184.887	115.8
185.268	129.77
185.648	159.14
186.029	180.23
186.41	232.93
186.791	250.86
187.171	231.22
187.552	262.82
187.932	287.58
188.313	303.51
188.694	284.16
189.074	345.31
189.455	335.36
189.835	372.6
190.216	374.59
190.596	421.17
190.977	410.38
191.357	388.79
191.737	416.35
192.118	402.71
192.498	423.45
192.878	462.91
193.258	444.74
193.639	458.08
194.019	440.77
194.399	437.08
194.779	455.81
195.159	442.19
195.54	457.23
195.92	460.07
196.3	457.8
196.68	451.84
197.06	459.5
197.44	426
197.82	435.94
198.2	439.06
198.58	435.66
198.959	447.3
199.339	441.9
199.719	428.56
200.099	443.04
200.479	424.87
200.858	414.93
201.238	419.47
201.618	405.84
201.998	438.21
202.377	424.58
202.757	433.95
203.136	379.7
203.516	428.84
203.896	416.91
204.275	407.26
204.655	404.42
205.034	402.71
205.414	396.75
205.793	405.84
206.172	393.34
206.552	408.11
206.931	406.97
207.31	419.47
207.69	418.33
208.069	398.17
208.448	381.12
208.827	403.57
209.207	390.5
209.586	387.94
209.965	404.99
210.344	391.63
210.723	387.09
211.102	422.59
211.481	401.29
211.86	415.78
212.239	404.13
212.618	426
212.997	403.57
213.376	400.72
213.755	401.58
214.134	397.03
214.513	414.64
214.891	410.38
215.27	413.79
215.649	431.4
216.028	418.9
216.406	428.84
216.785	431.11
217.164	417.2
217.542	391.35
217.921	423.45
218.3	442.47
218.678	414.93
219.057	404.99
219.435	430.26
219.814	422.88
220.192	420.32
220.57	436.22
220.949	419.19
221.327	411.8
221.705	427.42
222.084	416.63
222.462	425.43
222.84	420.89
223.218	416.35
223.597	443.61
223.975	402.71
224.353	438.21
224.731	459.5
225.109	433.38
225.487	436.51
225.865	444.46
226.243	452.12
226.621	431.11
226.999	429.98
227.377	408.96
227.755	433.95
228.133	439.35
228.511	444.46
228.889	441.33
229.266	442.47
229.644	424.58
230.022	404.99
230.4	424.3
230.777	427.99
231.155	427.71
231.533	407.83
231.91	445.59
232.288	415.49
232.665	434.52
233.043	420.04
233.42	437.64
233.798	434.24
234.175	452.69
234.553	449.57
234.93	458.37
235.307	435.09
235.685	425.15
236.062	421.74
236.439	437.36
236.816	461.21
237.194	450.14
237.571	427.71
237.948	438.21
238.325	443.32
238.702	442.19
239.079	431.97
239.456	422.88
239.833	422.31
240.21	425.72
240.587	453.83
240.964	449.57
241.341	441.62
241.718	447.86
242.095	455.53
242.472	432.25
242.849	451.27
243.225	483.34
243.602	450.14
243.979	437.64
244.356	443.61
244.732	446.16
245.109	434.52
245.486	467.17
245.862	451.84
246.239	436.22
246.615	449
246.992	454.39
247.368	442.75
247.745	429.13
248.121	451.84
248.497	443.32
248.874	453.83
249.25	452.41
249.626	428.56
250.003	457.23
250.379	457.8
250.755	433.95
251.131	443.32
251.507	463.76
251.884	453.26
252.26	451.84
252.636	451.84
253.012	485.89
253.388	469.72
253.764	438.5
254.14	443.89
254.516	467.73
254.892	446.16
255.268	462.34
255.643	456.66
256.019	482.49
256.395	465.75
256.771	464.89
257.147	454.39
257.522	466.03
257.898	467.73
258.274	482.49
258.649	453.83
259.025	454.39
259.4	487.88
259.776	462.91
260.151	454.11
260.527	466.03
260.902	448.43
261.278	487.31
261.653	475.39
262.028	451.55
262.404	438.78
262.779	464.04
263.154	449.28
263.53	463.48
263.905	445.88
264.28	463.76
264.655	446.16
265.03	446.44
265.405	468.02
265.781	438.5
266.156	477.38
266.531	454.96
266.906	456.1
267.281	474.83
267.655	471.42
268.03	449.57
268.405	433.95
268.78	453.83
269.155	450.42
269.53	449.28
269.904	442.47
270.279	484.47
270.654	456.1
271.029	455.81
271.403	468.87
271.778	448.15
272.152	463.19
272.527	457.8
272.901	449.28
273.276	479.08
273.65	456.1
274.025	465.75
274.399	454.39
274.774	455.24
275.148	476.25
275.522	469.15
275.897	464.89
276.271	465.18
276.645	457.52
277.019	450.7
277.393	471.99
277.768	469.44
278.142	484.19
278.516	486.46
278.89	465.46
279.264	461.77
279.638	477.1
280.012	473.41
280.386	481.92
280.76	460.64
281.133	471.71
281.507	454.68
281.881	443.32
282.255	447.86
282.629	483.34
283.002	527.59
283.376	457.8
283.75	470
284.123	502.92
284.497	475.39
284.87	471.42
285.244	495.54
285.618	484.76
285.991	464.89
286.364	454.68
286.738	453.26
287.111	455.81
287.485	479.37
287.858	500.93
288.231	470.57
288.605	479.37
288.978	454.68
289.351	471.71
289.724	474.54
290.097	476.53
290.47	466.6
290.843	469.72
291.217	464.04
291.59	464.61
291.963	464.04
292.336	453.26
292.708	466.03
293.081	474.83
293.454	485.33
293.827	455.53
294.2	476.53
294.573	445.03
294.945	470.29
295.318	483.06
295.691	466.31
296.064	441.05
296.436	466.03
296.809	458.65
297.181	456.66
297.554	467.73
297.926	462.34
298.299	467.45
298.671	477.38
299.044	441.33
299.416	485.89
299.788	481.07
300.161	471.14
300.533	467.73
300.905	461.21
301.278	483.62
301.65	465.75
302.022	465.75
302.394	452.97
302.766	468.3
303.138	489.87
303.51	458.93
303.882	493.55
304.254	465.75
304.626	478.52
304.998	504.33
305.37	452.12
305.742	489.87
306.114	495.26
306.485	473.98
306.857	477.95
307.229	466.03
307.601	453.83
307.972	480.5
308.344	486.18
308.716	463.76
309.087	471.14
309.459	480.22
309.83	471.42
310.202	485.33
310.573	481.35
310.945	466.31
311.316	472.56
311.687	479.94
312.059	464.04
312.43	477.1
312.801	494.69
313.172	476.81
313.544	475.68
313.915	501.21
314.286	448.43
314.657	479.94
315.028	496.67
315.399	466.88
315.77	493.55
316.141	468.02
316.512	485.61
316.883	463.48
317.254	454.96
317.625	469.15
317.996	471.42
318.366	490.43
318.737	473.98
319.108	475.68
319.478	466.31
319.849	464.04
320.22	493.27
320.59	470.57
320.961	467.17
321.331	473.12
321.702	475.39
322.072	499.23
322.443	486.46
322.813	509.44
323.184	493.27
323.554	478.23
323.924	500.08
324.295	459.5
324.665	508.02
325.035	467.73
325.405	494.4
325.775	506.89
326.145	477.38
326.515	489.58
326.886	487.88
327.256	469.72
327.626	468.02
327.995	475.96
328.365	448.43
328.735	481.07
329.105	479.37
329.475	445.88
329.845	477.66
330.215	461.77
330.584	457.23
330.954	504.05
331.324	477.66
331.693	471.99
332.063	460.07
332.432	475.96
332.802	481.07
333.171	499.51
333.541	466.88
333.91	475.11
334.28	457.52
334.649	474.26
335.018	482.77
335.388	457.8
335.757	461.49
336.126	453.54
336.495	443.04
336.865	487.6
337.234	460.92
337.603	453.83
337.972	475.68
338.341	449
338.71	483.06
339.079	478.23
339.448	471.71
339.817	481.35
340.186	470.29
340.554	500.65
340.923	484.19
341.292	488.45
341.661	491
342.029	476.53
342.398	450.14
342.767	474.54
343.135	466.88
343.504	478.23
343.872	457.23
344.241	451.55
344.609	480.79
344.978	490.43
345.346	461.49
345.715	500.65
346.083	478.52
346.451	465.46
346.82	466.31
347.188	446.44
347.556	473.41
347.924	477.95
348.292	481.92
348.66	476.81
349.028	463.19
349.396	489.3
349.764	478.52
350.132	477.66
350.5	482.77
350.868	475.11
351.236	468.3
351.604	470.85
351.972	480.5
352.34	479.08
352.707	476.53
353.075	493.55
353.443	481.64
353.81	467.17
354.178	470
354.545	483.06
354.913	465.75
355.28	507.74
355.648	456.38
356.015	470.85
356.383	475.39
356.75	484.76
357.117	494.97
357.485	509.16
357.852	480.79
358.219	469.15
358.586	498.66
358.954	472.27
359.321	479.37
359.688	458.08
360.055	462.91
360.422	493.84
360.789	467.17
361.156	484.19
361.523	477.66
361.89	462.91
362.256	462.34
362.623	479.94
362.99	476.53
363.357	485.04
363.724	494.97
364.09	458.08
364.457	441.62
364.823	505.75
365.19	485.61
365.557	477.66
365.923	493.84
366.29	498.66
366.656	452.12
367.022	479.65
367.389	474.54
367.755	468.58
368.121	478.23
368.488	460.07
368.854	476.25
369.22	468.02
369.586	465.75
369.952	477.1
370.318	463.48
370.684	487.6
371.051	476.25
371.416	489.3
371.782	479.37
372.148	465.18
372.514	465.18
372.88	468.3
373.246	467.45
373.612	475.39
373.977	483.06
374.343	486.46
374.709	479.65
375.074	459.22
375.44	471.42
375.806	473.98
376.171	487.88
376.537	472.56
376.902	462.91
377.268	490.43
377.633	452.97
377.998	445.88
378.364	464.89
378.729	484.47
379.094	495.26
379.459	465.18
379.825	470.85
380.19	453.26
380.555	471.99
380.92	483.34
381.285	499.51
381.65	490.43
382.015	491
382.38	490.15
382.745	468.02
383.11	482.49
383.474	492.99
383.839	491.57
384.204	445.88
384.569	459.79
384.933	443.61
385.298	481.64
385.663	491.28
386.027	501.78
386.392	495.54
386.756	473.69
387.121	473.41
387.485	469.15
387.849	508.02
388.214	489.87
388.578	484.19
388.942	484.76
389.307	502.06
389.671	515.11
390.035	480.5
390.399	469.15
390.763	481.07
391.127	466.6
391.492	477.95
391.856	487.31
392.219	478.23
392.583	469.72
392.947	477.66
393.311	481.92
393.675	485.61
394.039	454.96
394.403	460.07
394.766	458.08
395.13	493.84
395.494	466.31
395.857	491.85
396.221	498.38
396.584	484.47
396.948	498.94
397.311	465.18
397.675	474.26
398.038	481.64
398.401	480.22
398.765	476.81
399.128	472.56
399.491	475.39
399.854	472.84
400.218	478.8
400.581	468.58
400.944	466.03
401.307	477.66
401.67	483.06
402.033	465.46
402.396	486.18
402.759	481.07
403.122	476.53
403.485	458.08
403.847	445.88
404.21	448.43
404.573	477.95
404.936	481.07
405.298	490.15
405.661	476.25
406.023	448.72
406.386	460.07
406.749	472.56
407.111	480.22
407.473	495.26
407.836	465.46
408.198	462.62
408.561	468.87
408.923	467.17
409.285	483.62
409.647	475.39
410.009	487.6
410.372	481.92
410.734	494.69
411.096	493.55
411.458	476.53
411.82	468.3
412.182	496.39
412.544	483.62
412.906	459.22
413.267	465.18
413.629	479.65
413.991	468.3
414.353	466.6
414.714	464.04
415.076	443.04
415.438	476.81
415.799	473.12
416.161	448.43
416.522	478.23
416.884	468.87
417.245	477.38
417.607	482.77
417.968	468.87
418.329	467.73
418.691	463.76
419.052	471.99
419.413	474.26
419.774	487.31
420.135	484.19
420.497	469.15
420.858	458.65
421.219	439.35
421.58	466.03
421.941	475.11
422.302	464.04
422.662	456.66
423.023	449.85
423.384	467.17
423.745	476.81
424.106	457.8
424.466	478.23
424.827	474.26
425.187	477.38
425.548	489.87
425.909	484.76
426.269	479.65
426.63	474.83
426.99	497.53
427.35	485.04
427.711	473.12
428.071	456.66
428.431	486.46
428.792	466.88
429.152	471.71
429.512	457.23
429.872	510.29
430.232	441.9
430.592	468.58
430.952	467.45
431.312	469.72
431.672	477.1
432.032	492.7
432.392	470.85
432.752	472.56
433.111	486.18
433.471	479.37
433.831	483.91
434.19	449.57
434.55	473.12
434.91	471.42
435.269	506.6
435.629	496.11
435.988	470
436.348	479.94
436.707	484.19
437.066	474.26
437.426	480.5
437.785	440.77
438.144	447.01
438.503	478.52
438.862	474.83
439.222	473.98
439.581	471.71
439.94	467.45
440.299	458.65
440.658	452.41
441.017	468.02
441.376	473.98
441.734	477.95
442.093	510.57
442.452	482.49
442.811	470.57
443.169	470.85
443.528	479.94
443.887	466.31
444.245	478.52
444.604	463.76
444.962	479.37
445.321	472.27
445.679	467.45
446.038	484.76
446.396	470.85
446.754	494.97
447.112	471.42
447.471	468.87
447.829	487.03
448.187	476.81
448.545	508.59
448.903	492.7
449.261	479.08
449.619	480.22
449.977	475.11
450.335	460.92
450.693	487.6
451.051	489.87
451.409	477.1
451.766	473.69
452.124	479.37
452.482	494.69
452.839	467.17
453.197	474.54
453.555	475.96
453.912	465.18
454.27	491.28
454.627	477.66
454.984	481.64
455.342	490.72
455.699	479.08
456.056	474.26
456.414	466.03
456.771	469.44
457.128	470
457.485	464.89
457.842	472.84
458.199	480.79
458.556	471.71
458.913	483.06
459.27	479.94
459.627	471.42
459.984	478.8
460.341	474.54
460.697	465.75
461.054	487.88
461.411	485.89
461.767	475.96
462.124	465.75
462.481	469.44
462.837	476.25
463.194	465.46
463.55	476.53
463.907	472.84
464.263	496.39
464.619	479.08
464.976	488.45
465.332	475.68
465.688	493.84
466.044	479.65
466.4	476.25
466.756	458.65
467.112	474.83
467.468	484.47
467.824	491.28
468.18	505.47
468.536	458.08
468.892	493.84
469.248	489.87
469.604	475.11
469.959	472.84
470.315	476.81
470.671	464.04
471.026	475.39
471.382	489.58
471.737	471.14
472.093	477.1
472.448	491.85
472.804	486.18
473.159	501.5
473.514	478.52
473.87	474.26
474.225	472.27
474.58	459.22
474.935	483.34
475.29	490.72
475.645	467.45
476	479.65
476.355	457.8
476.71	479.94
477.065	471.42
477.42	493.27
477.775	500.65
478.13	483.06
478.485	484.47
478.839	464.04
479.194	457.23
479.549	493.55
479.903	456.38
480.258	476.25
480.612	485.04
480.967	459.22
481.321	488.45
481.675	484.19
482.03	495.26
482.384	487.03
482.738	458.08
483.093	487.88
483.447	471.99
483.801	481.07
484.155	496.11
484.509	475.11
484.863	465.75
485.217	499.23
485.571	492.99
485.925	479.94
486.279	490.72
486.632	481.07
486.986	495.82
487.34	489.3
487.694	479.94
488.047	503.77
488.401	467.73
488.754	489.87
489.108	453.26
489.461	496.96
489.815	466.88
490.168	473.69
490.522	466.6
490.875	489.3
491.228	483.34
491.581	485.61
491.935	454.96
492.288	492.99
492.641	466.6
492.994	473.69
493.347	504.33
493.7	492.14
494.053	464.89
494.406	504.05
494.759	476.25
495.111	474.26
495.464	439.92
495.817	475.11
496.169	473.98
496.522	477.1
496.875	471.14
497.227	461.21
497.58	464.61
497.932	468.3
498.285	498.09
498.637	456.66
498.989	463.76
499.342	442.47
499.694	479.94
500.046	501.21
500.398	471.99
500.751	467.73
501.103	486.46
501.455	475.11
501.807	457.23
502.159	458.37
502.511	468.87
502.862	481.64
503.214	479.65
503.566	472.27
503.918	463.48
504.27	470.29
504.621	463.19
504.973	471.42
505.324	455.81
505.676	460.35
506.027	467.73
506.379	466.03
506.73	485.33
507.082	516.53
507.433	462.62
507.784	487.03
508.136	480.22
508.487	496.39
508.838	464.33
509.189	479.94
509.54	486.18
509.891	464.04
510.242	500.65
510.593	481.92
510.944	468.02
511.295	490.43
511.646	467.73
511.996	474.83
512.347	473.41
512.698	487.6
513.049	472.56
513.399	462.06
513.75	452.69
514.1	462.62
514.451	465.46
514.801	482.49
515.152	493.84
515.502	479.65
515.852	477.38
516.202	486.74
516.553	470
516.903	485.61
517.253	462.06
517.603	474.26
517.953	466.88
518.303	467.45
518.653	488.16
519.003	500.65
519.353	467.17
519.703	485.89
520.052	467.73
520.402	478.52
520.752	465.46
521.102	469.44
521.451	459.5
521.801	487.31
522.15	483.62
522.5	455.53
522.849	486.46
523.199	476.81
523.548	473.41
523.897	477.1
524.246	477.38
524.596	457.8
524.945	458.37
525.294	479.94
525.643	443.89
525.992	482.77
526.341	469.72
526.69	442.47
527.039	492.42
527.388	456.95
527.737	442.19
528.086	475.11
528.434	446.16
528.783	471.71
529.132	474.26
529.48	462.34
529.829	475.11
530.177	480.22
530.526	463.48
530.874	480.79
531.223	464.04
531.571	460.07
531.919	461.49
532.268	470.85
532.616	471.71
532.964	469.72
533.312	478.8
533.66	468.3
534.008	490.43
534.356	478.8
534.704	481.92
535.052	484.47
535.4	460.64
535.748	472.56
536.095	476.81
536.443	484.19
536.791	479.37
537.139	483.34
537.486	473.41
537.834	447.58
538.181	487.03
538.529	477.95
538.876	478.8
539.223	456.95
539.571	467.17
539.918	487.6
540.265	479.37
540.613	471.99
540.96	483.62
541.307	502.35
541.654	464.61
542.001	452.41
542.348	456.38
542.695	483.91
543.042	475.68
543.388	471.42
543.735	480.5
544.082	477.1
544.429	480.22
544.775	493.55
545.122	481.35
545.469	442.75
545.815	459.5
546.162	446.73
546.508	456.95
546.854	486.46
547.201	470.57
547.547	462.34
547.893	480.5
548.24	446.44
548.586	489.87
548.932	481.64
549.278	467.17
549.624	454.68
549.97	468.3
550.316	470
550.662	471.14
551.008	491.85
551.353	457.52
551.699	473.69
552.045	466.88
552.391	478.52
552.736	482.77
553.082	468.3
553.427	471.71
553.773	450.7
554.118	459.22
554.464	445.88
554.809	488.16
555.154	462.34
555.5	483.91
555.845	489.01
556.19	474.83
556.535	476.81
556.88	481.07
557.225	439.92
557.57	475.39
557.915	474.54
558.26	476.81
558.605	447.01
558.95	475.11
559.295	475.96
559.639	492.7
559.984	466.03
560.329	470.57
560.673	491.85
561.018	468.87
561.362	462.91
561.707	468.87
562.051	475.39
562.395	481.92
562.74	472.56
563.084	484.19
563.428	478.8
563.772	458.08
564.117	469.15
564.461	471.14
564.805	473.69
565.149	463.48
565.493	451.55
565.836	475.11
566.18	483.06
566.524	473.98
566.868	502.06
567.212	447.01
567.555	456.95
567.899	458.93
568.242	445.88
568.586	459.79
568.929	491.85
569.273	483.91
569.616	457.8
569.96	496.96
570.303	465.18
570.646	446.44
570.989	478.8
571.333	477.1
571.676	459.5
572.019	490.15
572.362	456.1
572.705	466.03
573.048	471.99
573.391	500.93
573.733	477.66
574.076	462.91
574.419	497.53
574.762	487.31
575.104	470
575.447	475.11
575.789	483.62
576.132	455.81
576.474	472.27
576.817	463.19
577.159	490.15
577.501	479.08
577.844	472.27
578.186	476.25
578.528	473.98
578.87	453.54
579.212	496.67
579.554	480.22
579.896	493.27
580.238	462.91
580.58	462.06
580.922	448.43
581.264	511.71
581.606	508.59
581.947	475.68
582.289	463.19
582.631	467.45
582.972	504.9
583.314	483.34
583.655	468.87
583.997	464.33
584.338	490.43
584.679	486.18
585.021	468.3
585.362	481.35
585.703	475.39
586.044	477.95
586.385	481.35
586.726	489.87
587.067	480.79
587.408	467.17
587.749	463.48
588.09	470
588.431	457.52
588.772	476.81
589.113	463.76
589.453	445.03
589.794	438.5
590.134	453.83
590.475	474.83
590.815	479.94
591.156	474.26
591.496	475.39
591.837	466.88
592.177	504.33
592.517	471.71
592.857	472.27
593.198	482.49
593.538	481.92
593.878	486.46
594.218	476.53
594.558	471.14
594.898	509.72
595.237	485.04
595.577	460.92
595.917	482.49
596.257	474.26
596.596	445.03
596.936	471.71
597.276	485.61
597.615	461.77
597.955	495.26
598.294	481.92
598.633	467.17
598.973	458.08
599.312	465.46
599.651	468.3
599.991	500.36
600.33	513.98
600.669	480.5
601.008	490.43
601.347	460.35
601.686	471.42
602.025	460.35
602.364	480.79
602.702	484.19
603.041	492.7
603.38	448.43
603.719	487.03
604.057	449
604.396	468.87
604.734	485.33
605.073	460.64
605.411	473.69
605.75	488.45
606.088	492.42
606.426	458.93
606.764	488.73
607.103	467.17
607.441	483.91
607.779	499.23
608.117	481.64
608.455	453.83
608.793	482.2
609.131	502.92
609.469	486.46
609.806	479.65
610.144	469.72
610.482	474.54
610.819	485.89
611.157	465.46
611.495	475.68
611.832	473.98
612.17	482.49
612.507	482.77
612.844	470.29
613.182	473.12
613.519	460.92
613.856	497.24
614.193	464.61
614.53	485.61
614.867	462.06
615.205	481.07
615.541	461.21
615.878	472.27
616.215	456.95
616.552	464.61
616.889	492.42
617.226	486.18
617.562	469.15
617.899	455.81
618.235	483.06
618.572	466.31
618.908	452.97
619.245	475.68
619.581	454.11
619.918	485.04
620.254	470.85
620.59	471.42
620.926	453.26
621.262	483.91
621.599	470.57
621.935	484.47
622.271	484.76
622.606	474.54
622.942	472.27
623.278	461.49
623.614	448.72
623.95	487.6
624.285	460.07
624.621	484.47
624.957	474.54
625.292	480.5
625.628	477.1
625.963	466.6
626.299	460.35
