Data from FLMS007011_11-53-48-512.txt Node
Date: Thu Apr 21 11:53:48 MDT 2016
User: lab_user
Spectrometer: FLMS00701
Autoset integration time: false
Trigger mode: 0
Integration Time (sec): 5.000000E-3
Scans to average: 10
Electric dark correction enabled: true
Nonlinearity correction enabled: true
Boxcar width: 0
XAxis mode: Wavelengths
Stop averaging: false
Number of Pixels in Spectrum: 2048
>>>>>Begin Spectral Data<<<<<
178.41	26.79
178.791	26.79
179.172	26.79
179.553	-49.79
179.934	-80.39
180.316	-43.22
180.697	-61.51
181.078	-45.5
181.459	-50.36
181.84	-54.37
182.221	-19.21
182.602	-14.06
182.983	-18.35
183.364	19.65
183.744	51.06
184.125	62.19
184.506	98.15
184.887	124.96
185.268	142.07
185.648	146.34
186.029	159.74
186.41	215.3
186.791	214.16
187.171	268.26
187.552	422.34
187.932	417.23
188.313	465.21
188.694	473.72
189.074	511.74
189.455	551.15
189.835	537.83
190.216	590.54
190.596	574.39
190.977	591.68
191.357	623.68
191.737	619.15
192.118	635.57
192.498	668.98
192.878	690.76
193.258	683.41
193.639	678.03
194.019	689.63
194.399	715.94
194.779	721.88
195.159	752.13
195.54	768.24
195.92	778.13
196.3	730.08
196.68	790.84
197.06	803.27
197.44	827
197.82	832.64
198.2	817.11
198.58	840.83
198.959	826.15
199.339	821.07
199.719	877.24
200.099	867.37
200.479	874.98
200.858	907.43
201.238	908.84
201.618	880.06
201.998	906.3
202.377	921.53
202.757	927.45
203.136	929.71
203.516	943.81
203.896	973.68
204.275	989.46
204.655	1019.04
205.034	1031.43
205.414	1022.14
205.793	1072.25
206.172	1057.89
206.552	1085.19
206.931	1059.3
207.31	1107.69
207.69	1128.79
208.069	1140.88
208.448	1131.04
208.827	1189.22
209.207	1228.54
209.586	1231.35
209.965	1247.36
210.344	1285.53
210.723	1317.23
211.102	1313.58
211.481	1363.21
211.86	1362.65
212.239	1393.76
212.618	1418.41
212.997	1443.89
213.376	1485.32
213.755	1487.84
214.134	1555.24
214.513	1565.03
214.891	1626.5
215.27	1629.85
215.649	1680.38
216.028	1770.2
216.406	1785.53
216.785	1799.74
217.164	1865.47
217.542	1949.23
217.921	1953.4
218.3	1993.43
218.678	2086.76
219.057	2171.37
219.435	2197.43
219.814	2238.17
220.192	2331.47
220.57	2437.65
220.949	2499.25
221.327	2610.43
221.705	2693.92
222.084	2821.88
222.462	2915.31
222.84	2983.66
223.218	3148.95
223.597	3263.05
223.975	3388.73
224.353	3487.5
224.731	3622.36
225.109	3793.68
225.487	3957.6
225.865	4176.39
226.243	4276.92
226.621	4427.51
226.999	4684.08
227.377	4877.42
227.755	5000.73
228.133	5184.03
228.511	5405.64
228.889	5618.2
229.266	5767.61
229.644	5957.09
230.022	6319.87
230.4	6490.88
230.777	6728.68
231.155	6982.47
231.533	7228.82
231.91	7443.53
232.288	7666.14
232.665	7903.92
233.043	8246.81
233.42	8484.16
233.798	8712.24
234.175	9011.83
234.553	9317.12
234.93	9559.09
235.307	9757.83
235.685	10085.93
236.062	10319.38
236.439	10577.42
236.816	10832.45
237.194	11178.44
237.571	11447.43
237.948	11747.08
238.325	11877.25
238.702	12201.37
239.079	12404.77
239.456	12792.05
239.833	12985.53
240.21	13299.21
240.587	13570.09
240.964	13770.59
241.341	14088.86
241.718	14380.75
242.095	14458.84
242.472	14756.26
242.849	15067.52
243.225	15337.65
243.602	15590.64
243.979	15604.05
244.356	16104.89
244.732	16290.58
245.109	16510.59
245.486	16749.28
245.862	16953.92
246.239	17261.54
246.615	17387.84
246.992	17622.77
247.368	17835.86
247.745	18057.98
248.121	18359.4
248.497	18469.12
248.874	18835.35
249.25	19064.18
249.626	19266.84
250.003	19494.78
250.379	19875.17
250.755	19892.39
251.131	20194.15
251.507	20295.69
251.884	20613.54
252.26	20745.26
252.636	20991.47
253.012	21184.81
253.388	21412.26
253.764	21634.26
254.14	21625.92
254.516	21790.93
254.892	21810.81
255.268	22095.12
255.643	22111.57
256.019	22385.77
256.395	22520.52
256.771	22653.55
257.147	22903.4
257.522	22925.73
257.898	23130.4
258.274	23184.88
258.649	23298.49
259.025	23460.2
259.4	23534.55
259.776	23682.03
260.151	23774.04
260.527	23761.04
260.902	23944.33
261.278	24064.07
261.653	24074.38
262.028	24041.99
262.404	24256.69
262.779	24366.12
263.154	24485.62
263.53	24629.41
263.905	24523.65
264.28	24528.56
264.655	24641.19
265.03	24479.48
265.405	24720.2
265.781	24698.6
266.156	24844.36
266.531	24920.92
266.906	24858.1
267.281	25058.09
267.655	24754.06
268.03	24859.57
268.405	25015.64
268.78	24945.95
269.155	25065.21
269.53	24938.34
269.904	24938.59
270.279	25016.37
270.654	25062.75
271.029	25011.71
271.403	25018.34
271.778	25013.18
272.152	24979.57
272.527	24870.86
272.901	25221.52
273.276	25233.79
273.65	25219.81
274.025	25167.54
274.399	25128.52
274.774	25152.32
275.148	25288.76
275.522	25278.7
275.897	25193.06
276.271	25104.72
276.645	25348.4
277.019	25397.23
277.393	25635.29
277.768	25324.84
278.142	25328.03
278.516	25201.65
278.89	25300.3
279.264	25412.94
279.638	25458.09
280.012	25481.65
280.386	25256.12
280.76	25412.2
281.133	25450
281.507	25272.08
281.881	25396.74
282.255	25445.33
282.629	25247.78
283.002	25229.62
283.376	25344.72
283.75	25206.31
284.123	25305.94
284.497	25178.33
284.87	25348.64
285.244	25270.11
285.618	25276
285.991	25122.87
286.364	25023.74
286.738	25137.84
287.111	25143
287.485	25006.07
287.858	24888.04
288.231	24768.78
288.605	24870.37
288.978	24985.7
289.351	24652.96
289.724	24604.87
290.097	24590.64
290.47	24423.29
290.843	24390.9
291.217	24309.44
291.59	24198.29
291.963	24252.51
292.336	24041.5
292.708	23995.61
293.081	23884.7
293.454	24030.95
293.827	23915.13
294.2	23693.8
294.573	23680.06
294.945	23557.13
295.318	23540.2
295.691	23452.84
296.064	23343.89
296.436	23193.96
296.809	23337.75
297.181	23182.42
297.554	23052.85
297.926	23083.77
298.299	22970.88
298.671	23175.06
299.044	22984.63
299.416	23076.9
299.788	23007.94
300.161	22816.27
300.533	22839.83
300.905	23114.2
301.278	23000.58
301.65	23087.45
302.022	22952.72
302.394	22784.86
302.766	22893.82
303.138	22788.54
303.51	22859.47
303.882	22861.92
304.254	22732.58
304.626	22966.22
304.998	22966.22
305.37	22651.84
305.742	22790.99
306.114	22867.56
306.485	22853.09
306.857	22907.08
307.229	22747.06
307.601	22701.41
307.972	22596.61
308.344	22778.97
308.716	22660.18
309.087	22690.86
309.459	22609.37
309.83	22592.68
310.202	22568.39
310.573	22722.27
310.945	22614.28
311.316	22475.85
311.687	22534.02
312.059	22448.61
312.43	22608.15
312.801	22496.47
313.172	22316.79
313.544	22300.1
313.915	22499.66
314.286	22373.5
314.657	22422.1
315.028	22331.52
315.399	22322.68
315.77	22411.3
316.141	22258.37
316.512	22276.78
316.883	22155.02
317.254	22216.39
317.625	22013.37
317.996	22069.35
318.366	22125.81
318.737	21977.77
319.108	21938.98
319.478	21825.79
319.849	21937.26
320.22	21986.36
320.59	21936.77
320.961	21754.59
321.331	21824.81
321.702	21660.78
322.072	21502.64
322.443	21599.88
322.813	21498.71
323.184	21372.96
323.554	21286.5
323.924	21262.18
324.295	21174.74
324.665	21106.2
325.035	21124.62
325.405	20979.92
325.775	20874.27
326.145	20743.05
326.515	20639.34
326.886	20621.65
327.256	20519.4
327.626	20120.38
327.995	19966.67
328.365	19547.94
328.735	19123.78
329.105	18631.56
329.475	18643.88
329.845	18853.33
330.215	19677.12
330.584	20302.33
330.954	21391.38
331.324	22106.42
331.693	22486.9
332.063	22635.88
332.432	22367.36
332.802	21691.97
333.171	21099.57
333.541	20426.97
333.91	20345.11
334.28	20128.49
334.649	20102.18
335.018	20070.7
335.388	20034.31
335.757	19945.03
336.126	19843.93
336.495	19873.45
336.865	19779.47
337.234	19581.4
337.603	19607.98
337.972	19604.78
338.341	19585.1
338.71	19569.35
339.079	19473.86
339.448	19622.5
339.817	19503.88
340.186	19487.89
340.554	19396.32
340.923	19391.65
341.292	19250.1
341.661	19259.7
342.029	19265.61
342.398	19247.14
342.767	19133.38
343.135	19185.83
343.504	19051.62
343.872	19177.21
344.241	19048.42
344.609	18938.08
344.978	18992.51
345.346	18959.01
345.715	18911.72
346.083	18828.2
346.451	18867.38
346.82	18760.94
347.188	18820.32
347.556	18661.14
347.924	18705
348.292	18443.97
348.66	18500.18
349.028	18463.45
349.396	18284.92
349.764	18421.29
350.132	18455.07
350.5	18352
350.868	18235.84
351.236	18307.12
351.604	18108.31
351.972	18222.28
352.34	18015.04
352.707	18064.64
353.075	18161.1
353.443	17917.56
353.81	17816.85
354.178	17876.59
354.545	17925.21
354.913	17859.06
355.28	17697.11
355.648	17818.33
356.015	17670.19
356.383	17735.87
356.75	17686.49
357.117	17611.16
357.485	17546.7
357.852	17534.1
358.219	17567.69
358.586	17509.89
358.954	17413.04
359.321	17393.27
359.688	17246.46
360.055	17271.43
360.422	17301.34
360.789	17182.43
361.156	17221.25
361.523	17141.89
361.89	17028.38
362.256	17103.81
362.623	16897.02
362.99	16966.78
363.357	16927.7
363.724	16847.53
364.09	16946
364.457	16743.59
364.823	16845.8
365.19	16752.5
365.557	16927.45
365.923	16724.77
366.29	16792.35
366.656	16816.85
367.022	16897.27
367.389	16666.1
367.755	16572.01
368.121	16514.8
368.488	16557.15
368.854	16385.49
369.22	16372.11
369.586	16210.51
369.952	16100.42
370.318	15832.98
370.684	16006.92
371.051	16004.69
371.416	15772.16
371.782	15823.79
372.148	15861.52
372.514	15620.69
372.88	15621.93
373.246	15574.49
373.612	15720.27
373.977	15684.52
374.343	15806.17
374.709	15954.08
375.074	15827.52
375.44	15707.61
375.806	15559.83
376.171	15646.27
376.537	15665.4
376.902	15637.33
377.268	15828.76
377.633	15754.04
377.998	15807.91
378.364	16081.82
378.729	16129.19
379.094	15971.19
379.459	15560.83
379.825	15440.32
380.19	15459.95
380.555	15284.2
380.92	15020.23
381.285	14990.11
381.65	15082.45
382.015	15058.81
382.38	15030.19
382.745	14828.26
383.11	14731.09
383.474	14879.81
383.839	14764.48
384.204	14716.64
384.569	14633.89
384.933	14513.21
385.298	14494.51
385.663	14432.64
386.027	14502.99
386.392	14651.34
386.756	14741.56
387.121	14768.47
387.485	14972.94
387.849	15071.01
388.214	14866.36
388.578	14686.98
388.942	14447.11
389.307	14399.71
389.671	14370.27
390.035	14408.69
390.399	14568.33
390.763	14552.37
391.127	14796.37
391.492	15135.95
391.856	15542.19
392.219	15725.49
392.583	15737.16
392.947	15294.64
393.311	14743.3
393.675	14663.06
394.039	14396.22
394.403	14455.1
394.766	14315.36
395.13	14293.39
395.494	14208.01
395.857	14323.35
396.221	14357.29
396.584	14645.86
396.948	14849.18
397.311	15290.16
397.675	15553.62
398.038	15710.09
398.401	15265.79
398.765	14741.56
399.128	14414.68
399.491	14090.61
399.854	13977.16
400.218	13909.4
400.581	13913.16
400.944	13695.27
401.307	13409.51
401.67	13436.82
402.033	13350.35
402.396	13330.05
402.759	13272.88
403.122	13364.64
403.485	13380.68
403.847	13543.54
404.21	13698.77
404.573	13901.65
404.936	14047.63
405.298	13841.63
405.661	13373.16
406.023	12960.66
406.386	12832.02
406.749	12777.72
407.111	12610.97
407.473	12853.38
407.836	13057.34
408.198	13259.58
408.561	13182.07
408.923	13214.94
409.285	13149.2
409.647	13059.85
410.009	12695.5
410.372	12720.14
410.734	12571.96
411.096	12537.98
411.458	12562.4
411.82	12724.42
412.182	12889.32
412.544	12841.32
412.906	12982.51
413.267	12887.56
413.629	12682.92
413.991	12564.66
414.353	12529.42
414.714	12245.49
415.076	12212.97
415.438	12315.83
415.799	12363.2
416.161	12196.57
416.522	12058.06
416.884	11920.45
417.245	11889.63
417.607	11989.4
417.968	11964.9
418.329	12036.1
418.691	11993.44
419.052	12096.17
419.413	12127.71
419.774	12260.12
420.135	12693.99
420.497	13080.44
420.858	13594.38
421.219	13637.44
421.58	13413.27
421.941	12949.61
422.302	12519.61
422.662	12446.33
423.023	12195.57
423.384	12092.64
423.745	12179.17
424.106	12188.25
424.466	12410.31
424.827	12184.22
425.187	11810.79
425.548	11579.61
425.909	11358.24
426.269	11394.23
426.63	11554.8
426.99	11825.45
427.35	11775.65
427.711	11796.89
428.071	11926.77
428.431	12235.91
428.792	13151.71
429.152	14071.87
429.512	14375.76
429.872	14160.56
430.232	13880.15
430.592	13158.74
430.952	12356.9
431.312	11839.6
431.672	11407.91
432.032	11235.77
432.392	11540.12
432.752	12456.66
433.111	13252.06
433.471	13418.28
433.831	12447.84
434.19	12135.03
434.55	12125.44
434.91	11885.08
435.269	12029.29
435.629	12101.47
435.988	12285.58
436.348	12164.04
436.707	11697.51
437.066	11542.4
437.426	11720.53
437.785	11889.13
438.144	11948.99
438.503	11755.68
438.862	11561.63
439.222	11442.62
439.581	11252.51
439.94	11377.25
440.299	12105.25
440.658	12838.56
441.017	13076.17
441.376	12940.07
441.734	12621.03
442.093	12399.98
442.452	12573.47
442.811	12796.58
443.169	12775.97
443.528	12479.57
443.887	12265.92
444.245	12235.41
444.604	11930.3
444.962	11792.08
445.321	11813.32
445.679	11851.73
446.038	11985.61
446.396	11821.66
446.754	11462.88
447.112	11371.92
447.471	11247.95
447.829	11030.94
448.187	11084.02
448.545	11163.21
448.903	11113.97
449.261	11085.79
449.619	10927.03
449.977	10875.68
450.335	10642.87
450.693	10526.71
451.051	10502.76
451.409	10458.65
451.766	10517.54
452.124	10257.61
452.482	9995.15
452.839	9761.41
453.197	9737.58
453.555	9552.67
453.912	9611.43
454.27	9873.6
454.627	10031.73
454.984	10161.32
455.342	9987.99
455.699	9722.97
456.056	9671.7
456.414	9854.39
456.771	10138.07
457.128	10263.74
457.485	10417.09
457.842	10335.46
458.199	10364.03
458.556	10577.93
458.913	10423.98
459.27	10667.06
459.627	10398.73
459.984	10381.64
460.341	10477.01
460.697	10250.97
461.054	9843.9
461.411	9421.72
461.767	9103.8
462.124	9018.27
462.481	9216.3
462.837	9520.59
463.194	9969.83
463.55	9774.48
463.907	10221.86
464.263	10621.99
464.619	10970.99
464.976	11447.43
465.332	11580.11
465.688	11172.86
466.044	10294.37
466.4	9872.06
466.756	9665.03
467.112	9625.03
467.468	9618.87
467.824	9572.43
468.18	9362.88
468.536	9192.37
468.892	8991.73
469.248	8846.26
469.604	8698.03
469.959	8800.83
470.315	8776.82
470.671	8728.78
471.026	8815.8
471.382	8913.34
471.737	9182.59
472.093	9429.43
472.448	9657.6
472.804	9990.81
473.159	10119.93
473.514	10199.38
473.87	10328.06
474.225	10705.75
474.58	11330.86
474.935	11474.28
475.29	11145.19
475.645	10910.25
476	10885.85
476.355	10781.84
476.71	10670.88
477.065	11074.11
477.42	11486.69
477.775	11621.62
478.13	11509.99
478.485	11404.11
478.839	11685.88
479.194	12223.05
479.549	12652.48
479.903	12870.97
480.258	12527.16
480.612	12702.79
480.967	13287.17
481.321	13431.56
481.675	13135.4
482.03	12657.26
482.384	12319.86
482.738	12428.2
483.093	12549.06
483.447	13041.77
483.801	13892.15
484.155	14344.06
484.509	16267.53
484.863	34052.72
485.217	47560.04
485.571	51980.72
485.925	36486.34
486.279	23815.51
486.632	18583.75
486.986	16127.45
487.34	14399.71
487.694	13271.12
488.047	12954.89
488.401	13032.49
488.754	12885.3
489.108	12552.58
489.461	12364.96
489.815	12055.29
490.168	12189.01
490.522	12364.71
490.875	12454.14
491.228	12221.29
491.581	12254.07
491.935	12293.65
492.288	12188.5
492.641	12348.84
492.994	12294.15
493.347	12578.25
493.7	12728.95
494.053	12585.3
494.406	12404.77
494.759	11831.77
495.111	12211.45
495.464	13207.91
495.817	14086.11
496.169	13742.57
496.522	12652.73
496.875	11684.36
497.227	11242.11
497.58	11218.78
497.932	11538.85
498.285	11644.14
498.637	12163.28
498.989	12525.14
499.342	12576.24
499.694	12098.44
500.046	11677.28
500.398	12006.82
500.751	12463.71
501.103	12628.58
501.455	12634.87
501.807	12488.39
502.159	12469
502.511	12437.77
502.862	12481.84
503.214	12181.69
503.566	11677.28
503.918	11363.31
504.27	11325.79
504.621	11401.57
504.973	11246.43
505.324	11311.34
505.676	11624.91
506.027	11825.7
506.379	11167.53
506.73	10624.28
507.082	10646.44
507.433	11022.56
507.784	11392.7
508.136	11008.85
508.487	10891.44
508.838	10589.13
509.189	10482.36
509.54	10792.01
509.891	10652.55
510.242	10576.91
510.593	10521.11
510.944	10294.62
511.295	10142.16
511.646	9744.76
511.996	9810.6
512.347	9998.48
512.698	10064.97
513.049	9948.85
513.399	9787.29
513.75	9821.1
514.1	9622.97
514.451	9192.62
514.801	9065.68
515.152	9267.49
515.502	9510.58
515.852	9741.42
516.202	9771.92
516.553	9646.06
516.903	9263.89
517.253	9004.87
517.603	8969.3
517.953	8965.69
518.303	9440.99
518.653	9601.68
519.003	9572.43
519.353	9022.14
519.703	8540.06
520.052	8318.12
520.402	8485.71
520.752	8630.32
521.102	8572.13
521.451	8360.36
521.801	8339.89
522.15	8494.25
522.5	8699.33
522.849	8628.25
523.199	8880.58
523.548	8968.52
523.897	8884.71
524.246	8660.82
524.596	8325.89
524.945	8363.47
525.294	8349.22
525.643	8411.92
525.992	8453.09
526.341	8566.44
526.69	8409.07
527.039	8333.15
527.388	8148.21
527.737	8522.2
528.086	9135.22
528.434	9663.49
528.783	9427.89
529.132	8941.71
529.48	8608.08
529.829	8488.3
530.177	8419.69
530.526	8328.49
530.874	8418.91
531.223	8418.91
531.571	8439.11
531.919	8400.26
532.268	8765.2
532.616	9504.67
532.964	9960.87
533.312	10021.24
533.66	9817.52
534.008	9837.75
534.356	9906.36
534.704	9729.64
535.052	9574.49
535.4	9144.49
535.748	8625.41
536.095	8221.13
536.443	8070.3
536.791	8395.08
537.139	8865.1
537.486	9215.27
537.834	9481.56
538.181	9560.12
538.529	9440.47
538.876	9505.96
539.223	9290.64
539.571	8928.3
539.918	8775.78
540.265	9129.04
540.613	9537.79
540.96	9357.22
541.307	9293.98
541.654	9198.03
542.001	9242.8
542.348	9230.45
542.695	9166.11
543.042	9461.02
543.388	9612.97
543.735	9782.68
544.082	9842.61
544.429	9808.81
544.775	9389.86
545.122	8919.27
545.469	8460.86
545.815	8458.27
546.162	8576.53
546.508	9000.23
546.854	9633.75
547.201	10398.73
547.547	10815.92
547.893	10330.86
548.24	9452.55
548.586	8488.3
548.932	8173.12
549.278	8074.2
549.624	8262.37
549.97	8159.63
550.316	7852.14
550.662	7648.15
551.008	8077.05
551.353	9297.32
551.699	9969.06
552.045	9686.31
552.391	9056.92
552.736	8858.39
553.082	8814.51
553.427	8679.43
553.773	8143.53
554.118	7896.9
554.464	8290.64
554.809	8968.52
555.154	9442.79
555.5	9387.29
555.845	8833.1
556.19	8251.48
556.535	7851.36
556.88	8108.22
557.225	8257.96
557.57	7944.76
557.915	7582.16
558.26	7245.05
558.605	7296.34
558.95	7516.65
559.295	8397.67
559.639	9104.83
559.984	9826.74
560.329	10051.67
560.673	10054.23
561.018	9486.44
561.362	9023.17
561.707	8500.21
562.051	8611.7
562.395	8754.09
562.74	9342.57
563.084	9476.69
563.428	9922.23
563.772	9902.01
564.117	9896.89
564.461	10020.22
564.805	9875.65
565.149	9982.11
565.493	9935.03
565.836	10302.28
566.18	10451.26
566.524	11870.18
566.868	12850.37
567.212	13385.45
567.555	13592.38
567.899	14829.25
568.242	16185.47
568.586	18218.08
568.929	20722.9
569.273	23620.19
569.616	24041.5
569.96	24588.67
570.303	26059.4
570.646	27005.32
570.989	28415.06
571.333	28343.06
571.676	26635.06
572.019	22125.32
572.362	23540.93
572.705	27913.58
573.048	31972.93
573.391	34070.49
573.733	35139.29
574.076	35994.24
574.419	34556.65
574.762	30568.5
575.104	26629.9
575.447	25971.29
575.789	29541.68
576.132	34779.55
576.474	35095.34
576.817	40764.79
577.159	46996.64
577.501	48150.68
577.844	41543.25
578.186	31643.12
578.528	27944.53
578.87	27955.34
579.212	29950.21
579.554	33138.16
579.896	32517.22
580.238	35229.92
580.58	47598.8
580.922	55090.11
581.264	58620.7
581.606	49835.55
581.947	42778.25
582.289	33793.93
582.631	26712.4
582.972	23059.72
583.314	23758.09
583.655	25507.67
583.997	30795.66
584.338	36633.69
584.679	40612.22
585.021	39306.5
585.362	33070.36
585.703	28048.95
586.044	26529.49
586.385	30229.92
586.726	34090.47
