Data from FLMS007011_12-09-45-854.txt Node
Date: Thu Apr 21 12:09:45 MDT 2016
User: lab_user
Spectrometer: FLMS00701
Autoset integration time: false
Trigger mode: 0
Integration Time (sec): 5.000000E-3
Scans to average: 10
Electric dark correction enabled: true
Nonlinearity correction enabled: true
Boxcar width: 0
XAxis mode: Wavelengths
Stop averaging: false
Number of Pixels in Spectrum: 2048
>>>>>Begin Spectral Data<<<<<
178.41	5.79
178.791	5.79
179.172	5.79
179.553	-40.21
179.934	-47.08
180.316	-45.36
180.697	-47.36
181.078	-64.8
181.459	-44.79
181.84	-49.93
182.221	-50.51
182.602	0.65
182.983	40.06
183.364	9.51
183.744	68.33
184.125	71.18
184.506	88.59
184.887	94.01
185.268	141.35
185.648	184.39
186.029	206.33
186.41	185.82
186.791	228.26
187.171	286.33
187.552	386.69
187.932	435.55
188.313	445.48
188.694	455.7
189.074	451.44
189.455	515.85
189.835	537.97
190.216	528.61
190.596	537.4
190.977	558.66
191.357	584.17
191.737	601.45
192.118	588.13
192.498	627.22
192.878	640.25
193.258	659.21
193.639	649.59
194.019	672.8
194.399	665.44
194.779	688.64
195.159	674.49
195.54	690.06
195.92	712.97
196.3	739.27
196.68	735.03
197.06	727.96
197.44	731.07
197.82	737.85
198.2	764.99
198.58	789.86
198.959	776.29
199.339	792.4
199.719	775.73
200.099	780.25
200.479	808.5
200.858	805.11
201.238	839.28
201.618	829.68
201.998	827.99
202.377	853.96
202.757	840.69
203.136	859.32
203.516	877.95
203.896	868.64
204.275	894.88
204.655	901.93
205.034	910.95
205.414	922.8
205.793	916.03
206.172	967.06
206.552	948.74
206.931	987.35
207.31	1010.45
207.69	988.76
208.069	1044.8
208.448	1043.68
208.827	1033.82
209.207	1058.31
209.586	1078.86
209.965	1103.62
210.344	1103.62
210.723	1096.58
211.102	1149.73
211.481	1182.9
211.86	1202.56
212.239	1178.96
212.618	1244.41
212.997	1264.34
213.376	1302.22
213.755	1332.23
214.134	1363.91
214.513	1370.36
214.891	1391.37
215.27	1436.47
215.649	1460.83
216.028	1500.57
216.406	1531.34
216.785	1607.36
217.164	1591.16
217.542	1679.41
217.921	1684.15
218.3	1708.43
218.678	1820.78
219.057	1918.21
219.435	1950.76
219.814	1995.79
220.192	2020.52
220.57	2100.77
220.949	2127.69
221.327	2234.43
221.705	2288.99
222.084	2384.17
222.462	2506.29
222.84	2549.34
223.218	2664.04
223.597	2756.55
223.975	2890.73
224.353	3026.59
224.731	3114.03
225.109	3251.7
225.487	3381.77
225.865	3502.36
226.243	3627.94
226.621	3841.34
226.999	3958.82
227.377	4089.13
227.755	4234.64
228.133	4435.73
228.511	4604.6
228.889	4773.42
229.266	4908.94
229.644	5153.15
230.022	5334.81
230.4	5491.87
230.777	5700.25
231.155	5875.27
231.533	6068.77
231.91	6388.65
232.288	6556.38
232.665	6789.82
233.043	6980.76
233.42	7173.97
233.798	7410.73
234.175	7630.29
234.553	7824.15
234.93	8083.94
235.307	8347.28
235.685	8520.78
236.062	8809.99
236.439	8946.22
236.816	9249.61
237.194	9485.03
237.571	9646.7
237.948	9932.85
238.325	10152.25
238.702	10318.23
239.079	10569.39
239.456	10832.84
239.833	11030.82
240.21	11279.77
240.587	11447.3
240.964	11677.4
241.341	12015.28
241.718	12232.01
242.095	12328.3
242.472	12569.57
242.849	12755.98
243.225	13009.76
243.602	13265.73
243.979	13331.93
244.356	13546.93
244.732	13902.03
245.109	14124.96
245.486	14323.47
245.862	14385.86
246.239	14707.3
246.615	14824.4
246.992	15144.04
247.368	15159.96
247.745	15456.59
248.121	15588.53
248.497	15684.89
248.874	16029.86
249.25	16277.81
249.626	16434.42
250.003	16643.45
250.379	16946.13
250.755	17030.97
251.131	17220.38
251.507	17251.53
251.884	17565.35
252.26	17617.46
252.636	17923.12
253.012	18106.95
253.388	18385.66
253.764	18468.26
254.14	18498.58
254.516	18579.19
254.892	18703.65
255.268	18870.7
255.643	18978.35
256.019	19117.01
256.395	19226.58
256.771	19435.34
257.147	19568.48
257.522	19589.4
257.898	19830.03
258.274	19862.5
258.649	19943.43
259.025	20110.91
259.4	20300.73
259.776	20235.09
260.151	20230.91
260.527	20367.85
260.902	20462.74
261.278	20623.24
261.653	20642.66
262.028	20678.79
262.404	20763.82
262.779	20772.42
263.154	20984.22
263.53	21156.93
263.905	20990.85
264.28	21082.74
264.655	21142.43
265.03	21005.6
265.405	21208.51
265.781	21225.71
266.156	21361.29
266.531	21295.71
266.906	21361.05
267.281	21532.23
267.655	21349.99
268.03	21364.24
268.405	21401.08
268.78	21415.08
269.155	21495.88
269.53	21343.61
269.904	21464.45
270.279	21475.5
270.654	21536.16
271.029	21424.66
271.403	21575.7
271.778	21506.2
272.152	21505.46
272.527	21399.36
272.901	21604.67
273.276	21649.61
273.65	21675.64
274.025	21656.73
274.399	21631.93
274.774	21621.37
275.148	21668.03
275.522	21706.58
275.897	21710.76
276.271	21656.24
276.645	21833.77
277.019	21832.05
277.393	21928.05
277.768	21808.73
278.142	21738.26
278.516	21736.78
278.89	21758.15
279.264	21770.91
279.638	21935.91
280.012	21922.65
280.386	21606.15
280.76	21865.69
281.133	21830.58
281.507	21793.26
281.881	21870.85
282.255	21842.12
282.629	21820.02
283.002	21727.45
283.376	21829.35
283.75	21676.13
284.123	21816.59
284.497	21772.39
284.87	21757.16
285.244	21767.48
285.618	21738.75
285.991	21492.44
286.364	21539.6
286.738	21578.64
287.111	21676.62
287.485	21463.22
287.858	21482.37
288.231	21331.82
288.605	21434.24
288.978	21465.92
289.351	21261.33
289.724	21191.81
290.097	21202.86
290.47	21230.38
290.843	21059.4
291.217	21071.44
291.59	20824.27
291.963	20902.9
292.336	20730.64
292.708	20672.4
293.081	20644.87
293.454	20688.62
293.827	20485.85
294.2	20314.5
294.573	20409.89
294.945	20319.42
295.318	20297.29
295.691	20165.75
296.064	20054.35
296.436	20007.62
296.809	20061.24
297.181	19962.12
297.554	19901.12
297.926	19879.47
298.299	19874.06
298.671	20034.18
299.044	19876.03
299.416	19756.47
299.788	19784.52
300.161	19702.34
300.533	19709.23
300.905	19920.06
301.278	19741.46
301.65	19907.52
302.022	19715.63
302.394	19674.05
302.766	19777.38
303.138	19511.88
303.51	19819.21
303.882	19558.15
304.254	19680.94
304.626	19729.65
304.998	19775.17
305.37	19614.26
305.742	19682.17
306.114	19522.71
306.485	19808.87
306.857	19804.69
307.229	19580.05
307.601	19577.1
307.972	19475.46
308.344	19631.23
308.716	19595.31
309.087	19531.08
309.459	19418.35
309.83	19557.41
310.202	19465.12
310.573	19564.3
310.945	19523.7
311.316	19339.34
311.687	19493.42
312.059	19326.78
312.43	19348.94
312.801	19469.8
313.172	19245.29
313.544	19295.77
313.915	19409.49
314.286	19344.26
314.657	19329.74
315.028	19243.82
315.399	19200.24
315.77	19312.26
316.141	19148.28
316.512	19145.82
316.883	19061.11
317.254	19171.92
317.625	18948.55
317.996	19169.95
318.366	18941.4
318.737	18997.32
319.108	18970.22
319.478	18880.06
319.849	18887.21
320.22	18931.55
320.59	18832.76
320.961	18681.71
321.331	18893.86
321.702	18511.64
322.072	18503.51
322.443	18649.68
322.813	18490.44
323.184	18441.38
323.554	18447.79
323.924	18339.3
324.295	18220.67
324.665	18222.89
325.035	18267.54
325.405	18152.1
325.775	18080.8
326.145	18001.59
326.515	17860.42
326.886	17752.79
327.256	17706.12
327.626	17366.71
327.995	17149.18
328.365	16876.61
328.735	16643.2
329.105	16225.51
329.475	16316.48
329.845	16476.53
330.215	17018.11
330.584	17481.36
330.954	18249.28
331.324	18847.79
331.693	19091.89
332.063	19138.19
332.432	19127.35
332.802	18756.13
333.171	18402.43
333.541	17826.36
333.91	17721.67
334.28	17441.08
334.649	17300.23
335.018	17329.14
335.388	17270.32
335.757	17217.42
336.126	17045.32
336.495	17153.38
336.865	16997.83
337.234	16940.93
337.603	16928.81
337.972	16918.67
338.341	16915.7
338.71	16982.74
339.079	16831.08
339.448	16936.48
339.817	16810.54
340.186	16719.2
340.554	16747.42
340.923	16749.9
341.292	16514.93
341.661	16515.67
342.029	16648.65
342.398	16581.05
342.767	16402.96
343.135	16502.79
343.504	16360.09
343.872	16523.59
344.241	16454.49
344.609	16308.54
344.978	16347.95
345.346	16409.89
345.715	16292.43
346.083	16179.89
346.451	16314.24
346.82	16169.98
347.188	16340.02
347.556	16101.54
347.924	16102.53
348.292	15931.37
348.66	15989.93
349.028	16010.51
349.396	15838.31
349.764	16026.64
350.132	15770.8
350.5	15836.33
350.868	15881
351.236	15740.01
351.604	15616.1
351.972	15774.27
352.34	15595.48
352.707	15549.52
353.075	15595.98
353.443	15412.85
353.81	15363.88
354.178	15381.53
354.545	15379.54
354.913	15446.65
355.28	15339.27
355.648	15341.26
356.015	15337.28
356.383	15321.37
356.75	15196.03
357.117	15123.64
357.485	15134.08
357.852	15137.82
358.219	15222.89
358.586	15031.81
358.954	15020.61
359.321	15020.36
359.688	14971.82
360.055	14892.89
360.422	14940.2
360.789	14834.61
361.156	14699.07
361.523	14843.82
361.89	14771.08
362.256	14856.78
362.623	14708.04
362.99	14640
363.357	14554.99
363.724	14599.37
364.09	14568.45
364.457	14480.17
364.823	14554.49
365.19	14525.31
365.557	14544.76
365.923	14457.22
366.29	14439.01
366.656	14476.92
367.022	14565.21
367.389	14412.81
367.755	14298.26
368.121	14346.68
368.488	14259.57
368.854	14215.37
369.22	14126.21
369.586	14068
369.952	13874.52
370.318	13715.91
370.684	13824
371.051	13763.71
371.416	13688.89
371.782	13645.58
372.148	13643.33
372.514	13533.9
372.88	13545.92
373.246	13491.57
373.612	13630.81
373.977	13513.86
374.343	13659.6
374.709	13723.17
375.074	13673.87
375.44	13502.59
375.806	13509.85
376.171	13471.78
376.537	13467.77
376.902	13432.19
377.268	13550.68
377.633	13610.78
377.998	13690.14
378.364	13821
378.729	13785.73
379.094	13794.48
379.459	13374.04
379.825	13505.1
380.19	13336.19
380.555	13139.54
380.92	12929.89
381.285	12944.46
381.65	13036.63
382.015	13032.86
382.38	12978.37
382.745	12788.91
383.11	12801.98
383.474	12762.26
383.839	12733.85
384.204	12605.31
384.569	12589.2
384.933	12459.55
385.298	12498.58
385.663	12534.33
386.027	12576.37
386.392	12634.24
386.756	12748.69
387.121	12781.87
387.485	12846.22
387.849	13091.86
388.214	12898.74
388.578	12651.1
388.942	12479.95
389.307	12474.41
389.671	12328.05
390.035	12504.37
390.399	12499.09
390.763	12611.6
391.127	12689.84
391.492	13005.24
391.856	13348.22
392.219	13597.01
392.583	13619.04
392.947	13202.52
393.311	12732.84
393.675	12585.93
394.039	12498.83
394.403	12522.75
394.766	12356.78
395.13	12295.54
395.494	12248.65
395.857	12344.18
396.221	12412.96
396.584	12644.31
396.948	12770.56
397.311	13185.71
397.675	13505.6
398.038	13525.13
398.401	13192.99
398.765	12767.54
399.128	12350.48
399.491	12157.35
399.854	11971.6
400.218	11971.6
400.581	11958.21
400.944	11836.69
401.307	11604.79
401.67	11588.59
402.033	11569.36
402.396	11472.89
402.759	11450.34
403.122	11559.99
403.485	11635.66
403.847	11693.85
404.21	11847.56
404.573	11945.33
404.936	12046.58
405.298	11777.8
405.661	11520.49
406.023	11269.63
406.386	11076.78
406.749	10907.08
407.111	10922.07
407.473	11154.96
407.836	11327.95
408.198	11490.87
408.561	11402.97
408.923	11391.56
409.285	11358.37
409.647	11244.02
410.009	11018.37
410.372	10980.27
410.734	10767.46
411.096	10827.24
411.458	10848.09
411.82	10930.72
412.182	11059.51
412.544	11091.51
412.906	11164.86
413.267	11159.79
413.629	10906.31
413.991	10791.12
414.353	10815.03
414.714	10595.37
415.076	10554.36
415.438	10633.07
415.799	10649.87
416.161	10491.92
416.522	10412.88
416.884	10333.03
417.245	10331.5
417.607	10291.18
417.968	10235.52
418.329	10396.56
418.691	10354.72
419.052	10402.68
419.413	10471.53
419.774	10546.46
420.135	10945.96
420.497	11268.36
420.858	11678.16
421.219	11782.6
421.58	11570.62
421.941	11264.56
422.302	10847.59
422.662	10783.24
423.023	10557.67
423.384	10480.45
423.745	10532.19
424.106	10603.78
424.466	10675.84
424.827	10436.09
425.187	10194.15
425.548	9994.26
425.909	9794.85
426.269	9923.13
426.63	9977.89
426.99	10200.79
427.35	10211.26
427.711	10149.44
428.071	10340.94
428.431	10615.24
428.792	11366.22
429.152	12080.15
429.512	12393.81
429.872	12300.58
430.232	11979.93
430.592	11450.09
430.952	10749.91
431.312	10291.94
431.672	9785.62
432.032	9790.49
432.392	9992.72
432.752	10752.96
433.111	11503.53
433.471	11617.19
433.831	10795.19
434.19	10442.97
434.55	10441.44
434.91	10218.67
435.269	10377.94
435.629	10507.47
435.988	10578.31
436.348	10524.55
436.707	10143.82
437.066	9992.72
437.426	10091.43
437.785	10206.41
438.144	10334.05
438.503	10163.24
438.862	10065.1
439.222	9901.37
439.581	9714.13
439.94	9807.66
440.299	10455.47
440.658	11097.09
441.017	11357.86
441.376	11255.18
441.734	10934.27
442.093	10831.56
442.452	10859.79
442.811	11067.89
443.169	11073.73
443.528	10760.09
443.887	10568.88
444.245	10584.42
444.604	10417.73
444.962	10223.52
445.321	10097.05
445.679	10252.37
446.038	10342.48
446.396	10181.89
446.754	9905.21
447.112	9800.74
447.471	9682.85
447.829	9608.22
448.187	9563.84
448.545	9656.44
448.903	9589.5
449.261	9559.73
449.619	9448.82
449.977	9360.95
450.335	9172.16
450.693	9083.33
451.051	9073.8
451.409	9030.77
451.766	9056.02
452.124	8856.97
452.482	8766.62
452.839	8465.65
453.197	8334.06
453.555	8283.25
453.912	8265.1
454.27	8459.95
454.627	8719.61
454.984	8806.12
455.342	8682.92
455.699	8392.36
456.056	8324.21
456.414	8525.95
456.771	8753.96
457.128	8895.15
457.485	8959.37
457.842	8986.44
458.199	8936.94
458.556	9067.62
458.913	9076.63
459.27	9143.33
459.627	8993.14
459.984	8994.43
460.341	9081.78
460.697	8924.56
461.054	8565.02
461.411	8130.68
461.767	7819.21
462.124	7783.27
462.481	7954.51
462.837	8194.28
463.194	8625.53
463.55	8469.01
463.907	8848.97
464.263	9153.63
464.619	9485.03
464.976	9818.93
465.332	9962.28
465.688	9599.24
466.044	8886.9
466.4	8502.92
466.756	8319.02
467.112	8280.91
467.468	8327.06
467.824	8238.9
468.18	8042.63
468.536	7976.35
468.892	7787.18
469.248	7622.2
469.604	7557.5
469.959	7522.53
470.315	7533.49
470.671	7548.89
471.026	7600.29
471.382	7739.25
471.737	7950.87
472.093	8064.45
472.448	8296.99
472.804	8602.52
473.159	8755
473.514	8785.98
473.87	8859.55
474.225	9272.76
474.58	9735.66
474.935	9843.26
475.29	9588.98
475.645	9480.15
476	9374.06
476.355	9295.65
476.71	9151.83
477.065	9529.45
477.42	9915.19
477.775	10044.39
478.13	9893.18
478.485	9956.4
478.839	10053.85
479.194	10568.63
479.549	10928.43
479.903	11058.5
480.258	10749.65
480.612	10918.26
480.967	11431.09
481.321	11669.56
481.675	11273.18
482.03	10856.23
482.384	10628.48
482.738	10708.17
483.093	10869.45
483.447	11257.2
483.801	11830.12
484.155	12358.79
484.509	13635.32
484.863	28110.49
485.217	40327.69
485.571	44519.76
485.925	31994.98
486.279	21308.98
486.632	16363.56
486.986	14079.99
487.34	12431.85
487.694	11503.28
488.047	11106.23
488.401	11137.45
488.754	11070.69
489.108	10769.5
489.461	10614.73
489.815	10362.12
490.168	10563.28
490.522	10663.11
490.875	10714.53
491.228	10515.88
491.581	10650.38
491.935	10633.83
492.288	10520.72
492.641	10685.52
492.994	10562
493.347	10798.5
493.7	10884.96
494.053	10808.17
494.406	10713.01
494.759	10197.47
495.111	10458.53
495.464	11235.9
495.817	12119.76
496.169	11866.26
496.522	10969.34
496.875	10059.73
497.227	9788.7
497.58	9650.8
497.932	9859.39
498.285	10035.95
498.637	10445.27
498.989	10778.66
499.342	10791.38
499.694	10513.08
500.046	10119.03
500.398	10362.38
500.751	10788.83
501.103	10780.95
501.455	10880.39
501.807	10781.46
502.159	10805.11
502.511	10740.49
502.862	10774.84
503.214	10506.71
503.566	10141.78
503.918	9780.76
504.27	9785.11
504.621	9849.91
504.973	9710.8
505.324	9715.41
505.676	10041.83
506.027	10182.65
506.379	9656.7
506.73	9118.87
507.082	9209.99
507.433	9505.57
507.784	9822.25
508.136	9593.34
508.487	9401.04
508.838	9110.11
509.189	9118.35
509.54	9237.01
509.891	9215.91
510.242	9126.59
510.593	9131.23
510.944	8924.56
511.295	8719.61
511.646	8510.17
511.996	8407.12
512.347	8629.41
512.698	8698.68
513.049	8584.16
513.399	8445.45
513.75	8464.09
514.1	8300.1
514.451	7950.09
514.801	7811.92
515.152	7904.83
515.502	8193.24
515.852	8448.04
516.202	8431.21
516.553	8360.23
516.903	8013.26
517.253	7796.82
517.603	7654.8
517.953	7759.31
518.303	8008.33
518.653	8258.09
519.003	8234.49
519.353	7792.13
519.703	7380.94
520.052	7173.97
520.402	7213.77
520.752	7464.55
521.102	7399.5
521.451	7277.63
521.801	7223.72
522.15	7282.87
522.5	7517.3
522.849	7400.28
523.199	7562.72
523.548	7683.74
523.897	7668.62
524.246	7466.64
524.596	7216.65
524.945	7182.87
525.294	7193.61
525.643	7335.44
525.992	7241
526.341	7397.67
526.69	7275.8
527.039	7153.01
527.388	7006.21
527.737	7256.7
528.086	7808.01
528.434	8266.13
528.783	8171.18
529.132	7706.68
529.48	7481.01
529.829	7323.94
530.177	7238.9
530.526	7178.16
530.874	7264.55
531.223	7231.84
531.571	7241.78
531.919	7202.51
532.268	7534.53
532.616	8104.97
532.964	8524.66
533.312	8607.95
533.66	8497.23
534.008	8536.05
534.356	8536.56
534.704	8428.36
535.052	8252.39
535.4	7906.91
535.748	7485.45
536.095	7183.4
536.443	7009.36
536.791	7162.44
537.139	7576.03
537.486	7994.03
537.834	8202.06
538.181	8212.7
538.529	8168.32
538.876	8157.94
539.223	8068.09
539.571	7649.07
539.918	7676.96
540.265	7829.36
540.613	8199.72
540.96	8072.51
541.307	8034.32
541.654	7922.26
542.001	7987.79
542.348	7931.1
542.695	7916.8
543.042	8137.17
543.388	8329.91
543.735	8386.92
544.082	8424.22
544.429	8414.64
544.775	8137.95
545.122	7719.97
545.469	7334.92
545.815	7296.47
546.162	7382.25
546.508	7734.82
546.854	8197.39
547.201	8866.77
547.547	9275.59
547.893	8959.11
548.24	8221.26
548.586	7371
548.932	7024.83
549.278	6888.88
549.624	7094.05
549.97	7097.99
550.316	6829.25
550.662	6604.58
551.008	6905.16
551.353	7939.69
551.699	8485.58
552.045	8393.91
552.391	7849.93
552.736	7652.19
553.082	7692.34
553.427	7499.81
553.773	7018.54
554.118	6834.77
554.464	7082.52
554.809	7693.39
555.154	8128.86
555.5	8181.82
555.845	7744.98
556.19	7186.54
556.535	6848.95
556.88	6922.23
557.225	7089.34
557.57	6983.65
557.915	6599.32
558.26	6309.18
558.605	6323.44
558.95	6407.13
559.295	7098.25
559.639	7792.91
559.984	8468.5
560.329	8674.13
560.673	8728.39
561.018	8248.76
561.362	7820.51
561.707	7358.19
562.051	7362.38
562.395	7498.77
562.74	7961.53
563.084	8134.06
563.428	8540.7
563.772	8572.26
564.117	8548.72
564.461	8678.27
564.805	8506.29
565.149	8573.04
565.493	8567.61
565.836	8807.67
566.18	9047.26
566.524	10122.1
566.868	11027.01
567.212	11550.12
567.555	11647.05
567.899	12510.92
568.242	13677.37
568.586	15380.04
568.929	17614.75
569.273	20082.14
569.616	20572.61
569.96	20897
570.303	22194.67
570.646	23030.64
570.989	24112.53
571.333	24272.51
571.676	22923.15
572.019	19439.77
572.362	20016.23
572.705	23572.46
573.048	27027.54
573.391	29084.47
573.733	30038.39
574.076	30838.12
574.419	29827.59
574.762	26628.31
575.104	23447.81
575.447	22138.94
575.789	25022.88
576.132	29228.29
576.474	29726.5
576.817	34230.01
577.159	39529.81
577.501	41349.76
577.844	36281.55
578.186	28170.2
578.528	24155.72
578.87	24059.04
579.212	25362.75
579.554	28226.95
579.896	27891.1
580.238	29813.81
580.58	39476.74
580.922	46697.34
581.264	50864.65
581.606	43656.64
581.947	37500.02
582.289	29999.03
582.631	23664.97
582.972	20150.01
583.314	20282.29
583.655	21782.95
583.997	25675.9
584.338	30714.57
584.679	34137.48
585.021	33947.25
585.362	29108.31
585.703	24774.3
586.044	22695.4
586.385	25627.8
586.726	28910.42
587.067	28429.19
587.408	24888.41
587.749	22485.79
588.09	20450.45
588.431	18632.18
588.772	16532.02
