Data from FLMS007011_12-11-47-781.txt Node
Date: Thu Apr 21 12:11:47 MDT 2016
User: lab_user
Spectrometer: FLMS00701
Autoset integration time: false
Trigger mode: 0
Integration Time (sec): 5.000000E-3
Scans to average: 10
Electric dark correction enabled: true
Nonlinearity correction enabled: true
Boxcar width: 0
XAxis mode: Wavelengths
Stop averaging: false
Number of Pixels in Spectrum: 2048
>>>>>Begin Spectral Data<<<<<
178.41	26.18
178.791	26.18
179.172	26.18
179.553	-53.25
179.934	-55.26
180.316	-72.98
180.697	-58.11
181.078	-37.53
181.459	-46.39
181.84	-46.39
182.221	-41.82
182.602	-11.81
182.983	13.62
183.364	12.47
183.744	48.46
184.125	80.42
184.506	82.71
184.887	106.96
185.268	126.07
185.648	179.66
186.029	187.64
186.41	181.37
186.791	223.24
187.171	270.22
187.552	407.83
187.932	419.47
188.313	436.22
188.694	440.2
189.074	500.36
189.455	504.62
189.835	517.95
190.216	541.2
190.596	561.04
190.977	550.84
191.357	589.09
191.737	599.86
192.118	627.9
192.498	616.29
192.878	655.36
193.258	646.02
193.639	667.25
194.019	692.71
194.399	675.45
194.779	688.19
195.159	710.53
195.54	724.39
195.92	740.22
196.3	750.97
196.68	754.36
197.06	761.14
197.44	795.33
197.82	759.16
198.2	758.32
198.58	785.44
198.959	789.68
199.339	802.96
199.719	810.59
200.099	801.55
200.479	863.38
200.858	853.22
201.238	860.56
201.618	858.3
201.998	882.57
202.377	893.86
202.757	901.19
203.136	937.29
203.516	895.83
203.896	940.39
204.275	932.78
204.655	925.73
205.034	928.83
205.414	970.55
205.793	956.18
206.172	1015.35
206.552	1000.98
206.931	992.25
207.31	1025.2
207.69	1057.86
208.069	1102.6
208.448	1083.19
208.827	1084.31
209.207	1119.48
209.586	1121.16
209.965	1160.81
210.344	1179.35
210.723	1210.26
211.102	1212.51
211.481	1276.52
211.86	1286.34
212.239	1258.83
212.618	1343.84
212.997	1384.2
213.376	1390.08
213.755	1367.38
214.134	1403.25
214.513	1467.94
214.891	1467.1
215.27	1516.9
215.649	1568.07
216.028	1580.65
216.406	1661.65
216.785	1689.56
217.164	1695.7
217.542	1772.68
217.921	1842.61
218.3	1868.5
218.678	1902.18
219.057	1990.62
219.435	2040.36
219.814	2106.99
220.192	2158.31
220.57	2239.8
220.949	2265.56
221.327	2380.96
221.705	2512.19
222.084	2566.28
222.462	2673.79
222.84	2789.95
223.218	2881.77
223.597	2932.86
223.975	3128.11
224.353	3210.23
224.731	3322.88
225.109	3483.65
225.487	3639.21
225.865	3794.2
226.243	3867.78
226.621	4041.04
226.999	4264.2
227.377	4352.49
227.755	4515.33
228.133	4785.07
228.511	4937.73
228.889	5143.63
229.266	5286.6
229.644	5507.96
230.022	5777.94
230.4	5856.79
230.777	6106.73
231.155	6345.99
231.533	6551.21
231.91	6761.79
232.288	7009.72
232.665	7186.38
233.043	7431.22
233.42	7683.06
233.798	7941.09
234.175	8181.66
234.553	8380.28
234.93	8630.81
235.307	8930.59
235.685	9134.68
236.062	9468.18
236.439	9627.82
236.816	9908.13
237.194	10184.03
237.571	10333.64
237.948	10555.22
238.325	10845.4
238.702	11078.66
239.079	11366.07
239.456	11556.04
239.833	11808.23
240.21	12068.13
240.587	12277.23
240.964	12419.86
241.341	12732.44
241.718	13116.05
242.095	13181.04
242.472	13365.62
242.849	13574.82
243.225	14009.87
243.602	14155.53
243.979	14283.88
244.356	14493.23
244.732	14883.77
245.109	15047.09
245.486	15217.77
245.862	15423.64
246.239	15710.07
246.615	15798.2
246.992	16112.3
247.368	16246.68
247.745	16406.77
248.121	16707.67
248.497	16727.47
248.874	17057.29
249.25	17443.65
249.626	17548.15
250.003	17631.14
250.379	18128.51
250.755	18061.9
251.131	18317.45
251.507	18419.04
251.884	18711.14
252.26	18822.76
252.636	19098.63
253.012	19250.31
253.388	19495.98
253.764	19626.66
254.14	19574.73
254.516	19861.37
254.892	19884.24
255.268	20041.66
255.643	20153.06
256.019	20349.02
256.395	20416.62
256.771	20593.6
257.147	20816.99
257.522	20915.77
257.898	20996.11
258.274	21125.09
258.649	21186.5
259.025	21324.3
259.4	21353.28
259.776	21473.87
260.151	21636.69
260.527	21623.68
260.902	21773.47
261.278	21875.36
261.653	21829.45
262.028	21812.51
262.404	22072.02
262.779	22195.99
263.154	22351.13
263.53	22436.8
263.905	22228.15
264.28	22374.94
264.655	22383.04
265.03	22312.1
265.405	22483.43
265.781	22563.2
266.156	22597.32
266.531	22669.48
266.906	22639.05
267.281	22811.83
267.655	22569.59
268.03	22741.15
268.405	22637.08
268.78	22733.05
269.155	22815.75
269.53	22696.97
269.904	22751.45
270.279	22775.26
270.654	22831.71
271.029	22748.75
271.403	22806.92
271.778	22768.14
272.152	22699.18
272.527	22774.77
272.901	22931.35
273.276	22979.69
273.65	22979.2
274.025	22892.82
274.399	22862.38
274.774	22977.24
275.148	23071.72
275.522	23016.99
275.897	22977.97
276.271	22846.19
276.645	23167.67
277.019	23175.03
277.393	23186.32
277.768	23130.37
278.142	23118.84
278.516	23020.18
278.89	23021.17
279.264	23062.88
279.638	23097.24
280.012	23260.18
280.386	23022.88
280.76	23095.28
281.133	23035.4
281.507	23099.69
281.881	23097.73
282.255	23202.27
282.629	23098.47
283.002	22959.08
283.376	23110.98
283.75	22926.19
284.123	23109.02
284.497	22955.89
284.87	23073.93
285.244	22993.68
285.618	23035.15
285.991	22838.82
286.364	22859.19
286.738	22846.92
287.111	23006.93
287.485	22713.17
287.858	22761.27
288.231	22559.52
288.605	22601
288.978	22722.49
289.351	22489.82
289.724	22446.86
290.097	22306.7
290.47	22305.72
290.843	22273.07
291.217	22142.48
291.59	22015.06
291.963	21993.46
292.336	21891.57
292.708	21897.21
293.081	21794.58
293.454	21829.45
293.827	21720.18
294.2	21490.08
294.573	21446.37
294.945	21454.47
295.318	21434.33
295.691	21437.28
296.064	21296.79
296.436	21223.59
296.809	21285
297.181	21086.76
297.554	20989.97
297.926	20990.95
298.299	20993.9
298.671	21108.38
299.044	20993.9
299.416	20891.93
299.788	20842.05
300.161	20821.17
300.533	20893.65
300.905	20922.16
301.278	20894.15
301.65	21024.12
302.022	20861.47
302.394	20692.64
302.766	20816.99
303.138	20713.29
303.51	20829.52
303.882	20763.17
304.254	20764.4
304.626	20839.6
304.998	20869.08
305.37	20620.14
305.742	20677.16
306.114	20760.23
306.485	20736.39
306.857	20861.22
307.229	20607.12
307.601	20685.03
307.972	20687.73
308.344	20666.35
308.716	20577.38
309.087	20715.75
309.459	20556.73
309.83	20494.79
310.202	20532.64
310.573	20491.6
310.945	20467.26
311.316	20447.6
311.687	20521.83
312.059	20315.83
312.43	20406.54
312.801	20338.94
313.172	20298.13
313.544	20302.06
313.915	20507.08
314.286	20412.69
314.657	20401.38
315.028	20196.33
315.399	20201.25
315.77	20359.59
316.141	20156.25
316.512	20240.1
316.883	20062.31
317.254	20176.42
317.625	19934.42
317.996	20121.83
318.366	20011.41
318.737	19995.67
319.108	19933.93
319.478	19924.58
319.849	19787.57
320.22	19856.69
320.59	19850.54
320.961	19705.64
321.331	19739.1
321.702	19499.18
322.072	19505.83
322.443	19434.94
322.813	19490.57
323.184	19456.6
323.554	19391.62
323.924	19288.72
324.295	19138.77
324.665	19177.43
325.035	19211.17
325.405	19018.35
325.775	18973.27
326.145	18905.53
326.515	18753.52
326.886	18584.46
327.256	18483.64
327.626	18286.62
327.995	18029.33
328.365	17722.76
328.735	17333.19
329.105	17081.52
329.475	17212.32
329.845	17363.59
330.215	17978.49
330.584	18469.34
330.954	19070.31
331.324	19714
331.693	19939.83
332.063	19974.76
332.432	20080.76
332.802	19807
333.171	19350.51
333.541	18698.81
333.91	18549.95
334.28	18333.97
334.649	18295.01
335.018	18223.24
335.388	18140.85
335.757	18198.08
336.126	17969.36
336.495	18043.64
336.865	17921.73
337.234	17748.19
337.603	17795.84
337.972	17725.97
338.341	17735.35
338.71	17711.89
339.079	17667.2
339.448	17717.82
339.817	17736.59
340.186	17652.38
340.554	17598.54
340.923	17539.51
341.292	17403.38
341.661	17445.63
342.029	17453.29
342.398	17345.3
342.767	17297.85
343.135	17305.51
343.504	17230.37
343.872	17207.62
344.241	17354.45
344.609	17095.12
344.978	17153.48
345.346	17201.44
345.715	17140.13
346.083	17049.37
346.451	17105.51
346.82	16984.32
347.188	17028.84
347.556	16935.59
347.924	16923.96
348.292	16774
348.66	16943.01
349.028	16816.57
349.396	16571.98
349.764	16675.73
350.132	16585.6
350.5	16511.31
350.868	16584.86
351.236	16447.15
351.604	16412.22
351.972	16478.12
352.34	16249.9
352.707	16346.8
353.075	16309.63
353.443	16247.67
353.81	16117.51
354.178	16186.19
354.545	16177.02
354.913	16055.51
355.28	16093.45
355.648	16081.05
356.015	16080.8
356.383	16072.87
356.75	15914.1
357.117	15845.61
357.485	15883.83
357.852	15774.62
358.219	15848.34
358.586	15806.14
358.954	15803.66
359.321	15674.56
359.688	15689.21
360.055	15659.16
360.422	15758.23
360.789	15592.84
361.156	15561.55
361.523	15451.97
361.89	15443.52
362.256	15525.27
362.623	15363.98
362.99	15376.16
363.357	15250.85
363.724	15281.43
364.09	15231.45
364.457	15212.29
364.823	15309.28
365.19	15217.02
365.557	15296.6
365.923	15256.32
366.29	15131.69
366.656	15238.16
367.022	15172.99
367.389	15084.17
367.755	14998.8
368.121	14856.62
368.488	15022.2
368.854	14849.65
369.22	14714.37
369.586	14667.02
369.952	14509.45
370.318	14411.41
370.684	14369.99
371.051	14391.2
371.416	14302.6
371.782	14375.48
372.148	14265.16
372.514	14181.51
372.88	14159.28
373.246	14107.32
373.612	14134.55
373.977	14169.02
374.343	14256.42
374.709	14387.71
375.074	14255.42
375.44	14200.49
375.806	14061.35
376.171	14146.54
376.537	14196.49
376.902	14081.09
377.268	14186.5
377.633	14225.21
377.998	14248.43
378.364	14497.47
378.729	14480.51
379.094	14419.89
379.459	14110.32
379.825	13981.88
380.19	13972.63
380.555	13724.02
380.92	13590.1
381.285	13501.94
381.65	13593.1
382.015	13653.94
382.38	13604.87
382.745	13347.57
383.11	13295.92
383.474	13360.6
383.839	13334.28
384.204	13283.88
384.569	13162.98
384.933	13143.65
385.298	13014.88
385.663	13012.12
386.027	13090.7
386.392	13251.28
386.756	13343.31
387.121	13371.38
387.485	13394.44
387.849	13568.81
388.214	13406.97
388.578	13290.15
388.942	12974.7
389.307	13012.62
389.671	13008.1
390.035	13091.45
390.399	13185.81
390.763	13210.64
391.127	13366.87
391.492	13669.96
391.856	13975.13
392.219	14210.73
392.583	14263.16
392.947	13787.32
393.311	13360.1
393.675	13237.99
394.039	13108.02
394.403	13082.16
394.766	12927.48
395.13	12844.81
395.494	12814.65
395.857	12883.76
396.221	13012.87
396.584	13174.02
396.948	13433.54
397.311	13713.76
397.675	14064.85
398.038	14140.55
398.401	13762.31
398.765	13399.45
399.128	12978.72
399.491	12746.52
399.854	12611.44
400.218	12580.74
400.581	12465.44
400.944	12355.61
401.307	12138.03
401.67	12155.43
402.033	12070.15
402.396	12034.56
402.759	11968.66
403.122	11934.57
403.485	12139.29
403.847	12140.55
404.21	12391.39
404.573	12492.64
404.936	12534.43
405.298	12351.83
405.661	12124.91
406.023	11741.49
406.386	11608.94
406.749	11457.79
407.111	11491.73
407.473	11597.8
407.836	11836.54
408.198	12011.08
408.561	11891.37
408.923	11844.63
409.285	11794.33
409.647	11733.9
410.009	11486.41
410.372	11394.2
410.734	11314.61
411.096	11367.59
411.458	11365.56
411.82	11460.83
412.182	11607.67
412.544	11622.6
412.906	11675.99
413.267	11633.99
413.629	11442.59
413.991	11275.82
414.353	11297.88
414.714	11131.71
415.076	11040.31
415.438	11048.69
415.799	11209.36
416.161	10925.73
416.522	10865.99
416.884	10803.18
417.245	10781.3
417.607	10808.01
417.968	10695.29
418.329	10797.33
418.691	10847.43
419.052	10869.55
419.413	10899.04
419.774	11024.06
420.135	11440.31
420.497	11790.79
420.858	12202.6
421.219	12316.55
421.58	12209.41
421.941	11797.62
422.302	11290.02
422.662	11238.03
423.023	11012.12
423.384	10927.76
423.745	10915.06
424.106	11095.16
424.466	11143.39
424.827	11037.77
425.187	10699.87
425.548	10408.9
425.909	10228.73
426.269	10298.42
426.63	10412.22
426.99	10641.57
427.35	10643.86
427.711	10610.5
428.071	10811.57
428.431	11079.67
428.792	11801.91
429.152	12630.82
429.512	12879.74
429.872	12773.67
430.232	12477.03
430.592	11888.85
430.952	11231.94
431.312	10671.61
431.672	10188.88
432.032	10146.73
432.392	10349.46
432.752	11128.67
433.111	11884.8
433.471	11990.88
433.831	11255.53
434.19	10864.98
434.55	10811.57
434.91	10619.67
435.269	10851.75
435.629	10910.48
435.988	11057.33
436.348	10913.53
436.707	10539.43
437.066	10456.08
437.426	10538.41
437.785	10620.18
438.144	10722.52
438.503	10549.87
438.862	10484.88
439.222	10289.49
439.581	10168.19
439.94	10260.13
440.299	10862.18
440.658	11521.1
441.017	11809.24
441.376	11699.51
441.734	11369.36
442.093	11196.42
442.452	11224.84
442.811	11442.34
443.169	11520.34
443.528	11191.6
443.887	11126.13
444.245	11062.66
444.604	10837.77
444.962	10620.18
445.321	10588.85
445.679	10658.88
446.038	10829.63
446.396	10637.5
446.754	10333.13
447.112	10233.58
447.471	10089.23
447.829	9907.87
448.187	9908.13
448.545	10051.39
448.903	9993.34
449.261	10006.89
449.619	9810.57
449.977	9854.37
450.335	9604.73
450.693	9454.32
451.051	9403.45
451.409	9383.15
451.766	9444.3
452.124	9188.73
452.482	9034.74
452.839	8848.29
453.197	8651.75
453.555	8635.72
453.912	8636.75
454.27	8807.25
454.627	9042.21
454.984	9113.05
455.342	9000.2
455.699	8718.68
456.056	8757.16
456.414	8843.13
456.771	9078.79
457.128	9239.94
457.485	9327.12
457.842	9316.84
458.199	9318.64
458.556	9510.55
458.913	9434.28
459.27	9610.63
459.627	9386.75
459.984	9361.05
460.341	9468.18
460.697	9305.52
461.054	8956.64
461.411	8453.84
461.767	8223.95
462.124	8111.57
462.481	8282.57
462.837	8476.62
463.194	8978.29
463.55	8862.75
463.907	9307.32
464.263	9536.73
464.619	9841.56
464.976	10280.05
465.332	10349.97
465.688	9999.99
466.044	9300.64
466.4	8958.18
466.756	8661.57
467.112	8701.36
467.468	8657.69
467.824	8566.93
468.18	8358.78
468.536	8310.31
468.892	8159.6
469.248	7968.13
469.604	7903.11
469.959	7769.31
470.315	7847.68
470.671	7839.88
471.026	7945.25
471.382	8051.57
471.737	8256.9
472.093	8423.02
472.448	8780.66
472.804	8990.92
473.159	9087.55
473.514	9133.65
473.87	9148.06
474.225	9615.76
474.58	10185.82
474.935	10243.28
475.29	9980.8
475.645	9825.68
476	9704.23
476.355	9723.71
476.71	9530.83
477.065	9905.31
477.42	10304.81
477.775	10467.8
478.13	10329.05
478.485	10411.71
478.839	10443.07
479.194	10948.09
479.549	11381.27
479.903	11487.17
480.258	11200.74
480.612	11452.21
480.967	11836.29
481.321	12110.53
481.675	11720.75
482.03	11335.65
482.384	11102.78
482.738	11190.84
483.093	11238.79
483.447	11718.23
483.801	12371.74
484.155	12910.9
484.509	14233.7
484.863	29299.2
485.217	41789.71
485.571	46006.3
485.925	33362.27
486.279	22495.95
486.632	17270.41
486.986	14705.4
487.34	12956.62
487.694	12000.98
488.047	11607.67
488.401	11688.38
488.754	11551.73
489.108	11288.24
489.461	11170.8
489.815	10825.56
490.168	11001.96
490.522	11091.35
490.875	11112.17
491.228	11043.36
491.581	11068.25
491.935	11043.36
492.288	10859.13
492.641	11138.57
492.994	11080.69
493.347	11272.27
493.7	11371.14
494.053	11330.58
494.406	11179.68
494.759	10626.8
495.111	10943.27
495.464	11759.7
495.817	12572.44
496.169	12341.75
496.522	11377.22
496.875	10517.76
497.227	10146.73
497.58	10081.05
497.932	10352.27
498.285	10414.77
498.637	10803.69
498.989	11217.48
499.342	11312.33
499.694	10889.89
500.046	10506.55
500.398	10798.85
500.751	11178.41
501.103	11244.37
501.455	11229.66
501.807	11214.44
502.159	11255.53
502.511	11195.92
502.862	11199.47
503.214	10927.26
503.566	10706.74
503.918	10226.94
504.27	10217.23
504.621	10289.75
504.973	10108.91
505.324	10186.07
505.676	10458.12
506.027	10593.95
506.379	10151.58
506.73	9619.87
507.082	9585.75
507.433	9877.15
507.784	10171.51
508.136	9883.04
508.487	9762.15
508.838	9444.04
509.189	9410.13
509.54	9621.66
509.891	9559.57
510.242	9519.79
510.593	9430.43
510.944	9315.81
511.295	9036.8
511.646	8854.75
511.996	8742.7
512.347	8888.55
512.698	9011.29
513.049	8899.38
513.399	8771.37
513.75	8819.13
514.1	8614
514.451	8279.2
514.801	8158.3
515.152	8269.6
515.502	8515.19
515.852	8711.44
516.202	8778.85
516.553	8647.87
516.903	8390.65
517.253	8112.61
517.603	7959.29
517.953	8099.36
518.303	8368.11
518.653	8624.86
519.003	8555.81
519.353	8095.99
519.703	7700
520.052	7465.96
520.402	7544.29
520.752	7726.32
521.102	7657.77
521.451	7418.41
521.801	7503.57
522.15	7595.18
522.5	7776.34
522.849	7744.82
523.199	7897.13
523.548	8042.99
523.897	7886.98
524.246	7719.03
524.596	7498.08
524.945	7489.99
525.294	7486.59
525.643	7580.83
525.992	7536.46
526.341	7629.35
526.69	7682.02
527.039	7470.66
527.388	7270.41
527.737	7538.55
528.086	8146.1
528.434	8677.07
528.783	8440.63
529.132	8057.54
529.48	7826.6
529.829	7603
530.177	7481.37
530.526	7496.26
530.874	7556.3
531.223	7493.65
531.571	7488.16
531.919	7482.42
532.268	7848.99
532.616	8473.77
532.964	8861.46
533.312	8934.2
533.66	8792.02
534.008	8747.35
534.356	8821.45
534.704	8765.68
535.052	8593.05
535.4	8217.47
535.748	7818.79
536.095	7433.83
536.443	7236.65
536.791	7554.21
537.139	7777.91
537.486	8269.6
537.834	8471.44
538.181	8567.45
538.529	8495.52
538.876	8563.31
539.223	8300.72
539.571	7999.07
539.918	7905.97
540.265	8115.98
540.613	8520.36
540.96	8396.6
541.307	8347.38
541.654	8263.12
542.001	8271.68
542.348	8330.53
542.695	8226.03
543.042	8413.44
543.388	8560.98
543.735	8724.88
544.082	8751.22
544.429	8784.02
544.775	8420.95
545.122	8082.22
545.469	7614.22
545.815	7585.78
546.162	7729.19
546.508	7967.35
546.854	8509.23
547.201	9198.26
547.547	9597.55
547.893	9316.07
548.24	8513.89
548.586	7659.34
548.932	7321.95
549.278	7179.83
549.624	7366.4
549.97	7348.88
550.316	7066.63
550.662	6877.16
551.008	7210.47
551.353	8282.05
551.699	8847.78
552.045	8706.02
552.391	8102.48
552.736	7997.51
553.082	7877.09
553.427	7771.65
553.773	7354.11
554.118	7009.2
554.464	7350.19
554.809	7897.91
555.154	8439.6
555.5	8474.55
555.845	8008.69
556.19	7465.7
556.535	7058.5
556.88	7140.54
557.225	7353.33
557.57	7157.31
557.915	6764.95
558.26	6599.42
558.605	6520.9
558.95	6738.65
559.295	7434.61
559.639	8082.22
559.984	8763.62
560.329	9019.79
560.673	8989.38
561.018	8506.65
561.362	8097.54
561.707	7661.42
562.051	7683.06
562.395	7828.94
562.74	8218.77
563.084	8454.87
563.428	8832.29
563.772	8895
564.117	8875.13
564.461	8999.69
564.805	8825.07
565.149	8847
565.493	8901.7
565.836	9147.03
566.18	9397.29
566.524	10503.75
566.868	11387.1
567.212	11972.45
567.555	12070.4
567.899	13026.43
568.242	14308.59
568.586	15961.74
568.929	18282.68
569.273	20822.15
569.616	21427.95
569.96	21780.1
570.303	23006.44
570.646	23844.68
570.989	25151.56
571.333	25242.6
571.676	23788.49
572.019	20286.82
572.362	20737.13
572.705	24306.47
573.048	28018.94
573.391	30030.62
573.733	31134.6
574.076	31913.78
574.419	30849.05
574.762	27651.44
575.104	24379.84
575.447	23039.57
575.789	26042.69
576.132	30386.62
576.474	31161.69
576.817	35576.92
577.159	41049.39
577.501	42949.57
577.844	37914.91
578.186	29345.18
578.528	25141.99
578.87	25058.31
579.212	26260.9
579.554	29296.49
579.896	29042.52
580.238	30942.09
580.58	40855.98
580.922	48361
581.264	52543.83
581.606	45692.3
581.947	39129.21
582.289	31312.86
582.631	24738.33
582.972	20950.9
583.314	21121.16
583.655	22471.16
583.997	26698.38
584.338	32051.74
584.679	35638.18
585.021	35301.27
585.362	30265.81
585.703	25695.88
586.044	23718.31
586.385	26574.64
586.726	29889.91
587.067	29700.77
587.408	25928.8
587.749	23407.66
588.09	21353.28
588.431	19443.56
