Data from FLMS007011_12-36-52-772.txt Node
Date: Thu Apr 21 12:36:52 MDT 2016
User: lab_user
Spectrometer: FLMS00701
Autoset integration time: false
Trigger mode: 0
Integration Time (sec): 5.000000E-3
Scans to average: 10
Electric dark correction enabled: true
Nonlinearity correction enabled: true
Boxcar width: 0
XAxis mode: Wavelengths
Stop averaging: false
Number of Pixels in Spectrum: 2048
>>>>>Begin Spectral Data<<<<<
178.41	26.74
178.791	26.74
179.172	26.74
179.553	-69.57
179.934	-70.43
180.316	-71.86
180.697	-62.99
181.078	-44.41
181.459	-46.12
181.84	-22.97
182.221	-46.98
182.602	-10.4
182.983	21.31
183.364	17.03
183.744	71.85
184.125	59.29
184.506	92.68
184.887	102.95
185.268	142.3
185.648	134.89
186.029	183.63
186.41	201.3
186.791	188.48
187.171	245.44
187.552	251.42
187.932	291.54
188.313	327.1
188.694	318.28
189.074	346.72
189.455	337.05
189.835	369.74
190.216	391.9
190.596	430.81
190.977	393.32
191.357	434.22
191.737	406.67
192.118	433.94
192.498	442.74
192.878	446.71
193.258	452.39
193.639	447.85
194.019	458.35
194.399	439.33
194.779	447.28
195.159	462.89
195.54	466.01
195.92	477.65
196.3	471.41
196.68	459.77
197.06	463.74
197.44	473.68
197.82	455.23
198.2	443.87
198.58	453.53
198.959	450.97
199.339	454.66
199.719	420.59
200.099	428.54
200.479	429.68
200.858	444.16
201.238	424
201.618	429.68
201.998	452.67
202.377	441.03
202.757	435.64
203.136	422.01
203.516	429.39
203.896	438.48
204.275	424
204.655	436.21
205.034	418.03
205.414	421.16
205.793	428.26
206.172	427.12
206.552	411.22
206.931	432.52
207.31	432.52
207.69	439.05
208.069	437.91
208.448	424
208.827	433.37
209.207	401.28
209.586	443.02
209.965	392.47
210.344	420.87
210.723	416.9
211.102	408.66
211.481	450.97
211.86	415.48
212.239	439.05
212.618	421.73
212.997	457.22
213.376	472.54
213.755	452.67
214.134	443.59
214.513	410.08
214.891	440.47
215.27	455.23
215.649	448.42
216.028	452.67
216.406	447.85
216.785	445.86
217.164	423.71
217.542	448.98
217.921	436.49
218.3	444.16
218.678	438.2
219.057	469.14
219.435	483.61
219.814	458.35
220.192	454.66
220.57	485.88
220.949	481.91
221.327	463.74
221.705	467.43
222.084	473.39
222.462	461.76
222.84	500.35
223.218	477.93
223.597	484.18
223.975	497.79
224.353	500.06
224.731	530.41
225.109	494.96
225.487	528.71
225.865	511.12
226.243	522.19
226.621	513.96
226.999	545.15
227.377	528.42
227.755	554.51
228.133	527.86
228.511	561.88
228.889	579.73
229.266	559.04
229.644	582
230.022	564.71
230.4	587.66
230.777	578.31
231.155	575.2
231.533	576.33
231.91	624.77
232.288	611.17
232.665	629.58
233.043	616.27
233.42	631.85
233.798	646.29
234.175	629.58
234.553	644.87
234.93	683.93
235.307	671.48
235.685	678.83
236.062	696.09
236.439	729.46
236.816	688.45
237.194	720.98
237.571	755.19
237.948	750.39
238.325	753.78
238.702	782.6
239.079	780.34
239.456	791.64
239.833	793.62
240.21	810.57
240.587	861.11
240.964	802.66
241.341	873.24
241.718	862.8
242.095	850.38
242.472	879.73
242.849	904.28
243.225	914.15
243.602	931.92
243.979	960.11
244.356	958.7
244.732	969.41
245.109	969.13
245.486	983.22
245.862	988.01
246.239	1048.84
246.615	1012.51
246.992	1036.45
247.368	1037.29
247.745	1059.25
248.121	1088.24
248.497	1048.27
248.874	1106.52
249.25	1127.9
249.626	1117.21
250.003	1097.52
250.379	1126.49
250.755	1151.8
251.131	1153.48
251.507	1169.5
251.884	1186.08
252.26	1163.88
252.636	1196.48
253.012	1179.34
253.388	1226.81
253.764	1209.12
254.14	1266.12
254.516	1231.59
254.892	1262.75
255.268	1284.08
255.643	1224.85
256.019	1277.34
256.395	1289.13
256.771	1300.07
257.147	1291.37
257.522	1279.87
257.898	1306.24
258.274	1318.3
258.649	1301.75
259.025	1330.36
259.4	1312.97
259.776	1310.73
260.151	1301.47
260.527	1347.19
260.902	1334.01
261.278	1374.37
261.653	1325.59
262.028	1370.73
262.404	1333.17
262.779	1362.32
263.154	1356.72
263.53	1362.04
263.905	1373.81
264.28	1365.97
264.655	1379.42
265.03	1385.58
265.405	1384.46
265.781	1384.74
266.156	1366.53
266.531	1376.06
266.906	1378.3
267.281	1371.57
267.655	1337.09
268.03	1416.4
268.405	1393.15
268.78	1412.48
269.155	1374.09
269.53	1388.39
269.904	1383.62
270.279	1404.36
270.654	1372.41
271.029	1384.74
271.403	1427.6
271.778	1398.75
272.152	1393.15
272.527	1395.39
272.901	1378.3
273.276	1425.92
273.65	1425.92
274.025	1381.38
274.399	1459.52
274.774	1411.36
275.148	1420.6
275.522	1423.68
275.897	1440.77
276.271	1404.64
276.645	1397.07
277.019	1436.28
277.393	1446.36
277.768	1436.84
278.142	1446.36
278.516	1428.16
278.89	1410.52
279.264	1416.96
279.638	1422.84
280.012	1451.12
280.386	1420.32
280.76	1443
281.133	1454.2
281.507	1475.48
281.881	1456.44
282.255	1425.08
282.629	1465.68
283.002	1424.24
283.376	1453.36
283.75	1475.76
284.123	1473.8
284.497	1460.92
284.87	1450.28
285.244	1473.52
285.618	1476.6
285.991	1490.87
286.364	1480.79
286.738	1508.49
287.111	1521.08
287.485	1494.51
287.858	1506.82
288.231	1522.48
288.605	1511.01
288.978	1542.34
289.351	1536.46
289.724	1549.88
290.097	1546.81
290.47	1538.42
290.843	1524.72
291.217	1528.07
291.59	1537.58
291.963	1550.16
292.336	1562.19
292.708	1552.12
293.081	1535.34
293.454	1545.97
293.827	1571.41
294.2	1563.3
294.573	1530.03
294.945	1552.4
295.318	1530.59
295.691	1521.92
296.064	1526.68
296.436	1537.02
296.809	1550.44
297.181	1510.73
297.554	1516.05
297.926	1505.7
298.299	1512.69
298.671	1533.67
299.044	1511.57
299.416	1544.85
299.788	1477.72
300.161	1503.46
300.533	1515.49
300.905	1525
301.278	1524.16
301.65	1503.74
302.022	1504.58
302.394	1490.87
302.766	1511.85
303.138	1514.93
303.51	1529.19
303.882	1509.05
304.254	1508.77
304.626	1544.85
304.998	1536.74
305.37	1549.33
305.742	1538.14
306.114	1549.6
306.485	1515.77
306.857	1537.58
307.229	1537.02
307.601	1531.99
307.972	1508.77
308.344	1519.68
308.716	1540.94
309.087	1507.93
309.459	1527.79
309.83	1497.58
310.202	1491.71
310.573	1530.31
310.945	1577.28
311.316	1538.14
311.687	1496.74
312.059	1540.66
312.43	1533.39
312.801	1548.49
313.172	1521.36
313.544	1514.65
313.915	1538.42
314.286	1527.79
314.657	1564.7
315.028	1535.62
315.399	1529.19
315.77	1523.32
316.141	1529.75
316.512	1530.59
316.883	1551.28
317.254	1533.11
317.625	1555.48
317.996	1527.51
318.366	1493.11
318.737	1530.87
319.108	1501.78
319.478	1544.57
319.849	1504.86
320.22	1532.55
320.59	1526.4
320.961	1525.84
321.331	1545.41
321.702	1510.73
322.072	1514.93
322.443	1537.58
322.813	1514.09
323.184	1512.69
323.554	1519.12
323.924	1532.83
324.295	1539.26
324.665	1528.07
325.035	1521.64
325.405	1516.61
325.775	1514.65
326.145	1501.22
326.515	1543.73
326.886	1524.44
327.256	1515.49
327.626	1469.04
327.995	1464.84
328.365	1479.12
328.735	1496.74
329.105	1514.09
329.475	1519.4
329.845	1521.08
330.215	1539.82
330.584	1539.54
330.954	1529.47
331.324	1549.6
331.693	1527.79
332.063	1564.42
332.432	1555.48
332.802	1560.23
333.171	1582.59
333.541	1582.87
333.91	1594.88
334.28	1614.72
334.649	1563.86
335.018	1547.65
335.388	1576.16
335.757	1542.61
336.126	1556.59
336.495	1542.89
336.865	1528.63
337.234	1557.99
337.603	1487.51
337.972	1507.38
338.341	1498.7
338.71	1506.54
339.079	1516.61
339.448	1530.31
339.817	1499.82
340.186	1537.02
340.554	1537.02
340.923	1498.7
341.292	1516.89
341.661	1512.13
342.029	1544.01
342.398	1532.55
342.767	1508.77
343.135	1550.44
343.504	1523.32
343.872	1540.1
344.241	1530.03
344.609	1507.38
344.978	1535.06
345.346	1537.02
345.715	1515.49
346.083	1550.16
346.451	1495.34
346.82	1523.32
347.188	1539.26
347.556	1527.51
347.924	1533.95
348.292	1498.98
348.66	1503.18
349.028	1512.13
349.396	1519.4
349.764	1514.65
350.132	1517.73
350.5	1485.27
350.868	1519.96
351.236	1524.72
351.604	1515.21
351.972	1530.59
352.34	1498.98
352.707	1496.18
353.075	1463.44
353.443	1520.8
353.81	1468.2
354.178	1462.88
354.545	1492.27
354.913	1494.79
355.28	1496.18
355.648	1499.54
356.015	1506.54
356.383	1462.32
356.75	1481.07
357.117	1473.52
357.485	1485.55
357.852	1504.58
358.219	1493.67
358.586	1478
358.954	1483.87
359.321	1498.42
359.688	1449.16
360.055	1474.08
360.422	1451.12
360.789	1479.67
361.156	1451.68
361.523	1475.2
361.89	1451.68
362.256	1453.92
362.623	1477.44
362.99	1465.96
363.357	1424.52
363.724	1432.64
364.09	1452.24
364.457	1411.64
364.823	1461.2
365.19	1460.08
365.557	1463.72
365.923	1413.04
366.29	1407.44
366.656	1452.52
367.022	1428.72
367.389	1441.89
367.755	1423.96
368.121	1433.48
368.488	1440.21
368.854	1418.92
369.22	1416.4
369.586	1392.31
369.952	1404.64
370.318	1401.83
370.684	1358.68
371.051	1409.96
371.416	1420.04
371.782	1406.88
372.148	1368.49
372.514	1396.23
372.88	1381.1
373.246	1404.64
373.612	1377.74
373.977	1356.44
374.343	1394.55
374.709	1403.52
375.074	1397.91
375.44	1372.97
375.806	1378.86
376.171	1343.26
376.537	1349.15
376.902	1367.65
377.268	1366.25
377.633	1388.11
377.998	1413.32
378.364	1387.27
378.729	1383.34
379.094	1389.79
379.459	1393.71
379.825	1362.6
380.19	1381.66
380.555	1355.6
380.92	1335.69
381.285	1353.35
381.65	1330.64
382.015	1311.01
382.38	1338.49
382.745	1314.94
383.11	1312.69
383.474	1350.55
383.839	1322.79
384.204	1324.19
384.569	1318.02
384.933	1301.47
385.298	1282.39
385.663	1295.58
386.027	1309.05
386.392	1299.51
386.756	1307.92
387.121	1320.55
387.485	1350.55
387.849	1302.59
388.214	1320.83
388.578	1327.84
388.942	1317.74
389.307	1312.97
389.671	1310.73
390.035	1318.86
390.399	1293.9
390.763	1304.84
391.127	1326.72
391.492	1322.51
391.856	1356.44
392.219	1356.72
392.583	1381.66
392.947	1365.97
393.311	1365.13
393.675	1365.41
394.039	1286.04
394.403	1314.1
394.766	1272.29
395.13	1261.91
395.494	1285.76
395.857	1269.77
396.221	1292.21
396.584	1319.7
396.948	1290.25
397.311	1308.21
397.675	1374.09
398.038	1370.45
398.401	1341.3
398.765	1314.66
399.128	1299.79
399.491	1282.39
399.854	1292.5
400.218	1266.4
400.581	1284.36
400.944	1270.61
401.307	1254.33
401.67	1270.61
402.033	1264.15
402.396	1248.15
402.759	1247.03
403.122	1240.85
403.485	1233.27
403.847	1247.31
404.21	1267.8
404.573	1282.11
404.936	1270.89
405.298	1276.5
405.661	1264.99
406.023	1204.91
406.386	1207.71
406.749	1215.58
407.111	1218.39
407.473	1252.08
407.836	1218.67
408.198	1228.78
408.561	1240.01
408.923	1266.12
409.285	1237.2
409.647	1226.53
410.009	1217.55
410.372	1217.26
410.734	1231.87
411.096	1185.52
411.458	1209.68
411.82	1218.67
412.182	1200.41
412.544	1175.69
412.906	1228.5
413.267	1209.12
413.629	1225.41
413.991	1195.07
414.353	1227.66
414.714	1192.54
415.076	1179.06
415.438	1197.6
415.799	1204.06
416.161	1170.35
416.522	1168.66
416.884	1172.03
417.245	1161.63
417.607	1149.83
417.968	1157.98
418.329	1169.22
418.691	1157.98
419.052	1177.93
419.413	1176.53
419.774	1178.21
420.135	1219.23
420.497	1232.71
420.858	1241.13
421.219	1240.57
421.58	1250.12
421.941	1233.83
422.302	1181.31
422.662	1256.85
423.023	1159.67
423.384	1173.16
423.745	1187.77
424.106	1196.2
424.466	1219.79
424.827	1189.74
425.187	1177.09
425.548	1166.97
425.909	1115.52
426.269	1127.05
426.63	1148.98
426.99	1155.73
427.35	1171.75
427.711	1144.77
428.071	1154.04
428.431	1196.48
428.792	1238.61
429.152	1272.29
429.512	1298.67
429.872	1295.86
430.232	1293.9
430.592	1243.66
430.952	1213.89
431.312	1209.12
431.672	1134.65
432.032	1158.26
432.392	1139.71
432.752	1191.14
433.111	1206.03
433.471	1244.22
433.831	1194.79
434.19	1202.1
434.55	1210.52
434.91	1168.66
435.269	1188.89
435.629	1167.54
435.988	1180.74
436.348	1185.24
436.707	1159.39
437.066	1143.36
437.426	1140.83
437.785	1140.27
438.144	1173.72
438.503	1171.19
438.862	1146.45
439.222	1138.58
439.581	1125.09
439.94	1154.89
440.299	1191.14
440.658	1215.86
441.017	1239.17
441.376	1225.13
441.734	1210.24
442.093	1191.42
442.452	1188.05
442.811	1231.03
443.169	1201.82
443.528	1215.86
443.887	1194.51
444.245	1201.82
444.604	1168.66
444.962	1205.75
445.321	1171.19
445.679	1168.94
446.038	1158.82
446.396	1154.33
446.754	1147.58
447.112	1105.12
447.471	1145.33
447.829	1124.52
448.187	1128.18
448.545	1128.74
448.903	1124.52
449.261	1133.24
449.619	1139.14
449.977	1111.59
450.335	1094.15
450.693	1078.39
451.051	1090.49
451.409	1059.53
451.766	1040.11
452.124	1053.06
452.482	1044.61
452.839	1049.12
453.197	1064.04
453.555	1002.09
453.912	1018.43
454.27	1056.44
454.627	1065.44
454.984	1067.41
455.342	1063.19
455.699	1051.37
456.056	1023.22
456.414	1016.74
456.771	1062.07
457.128	1084.02
457.485	1080.92
457.842	1060.94
458.199	1084.86
458.556	1080.64
458.913	1060.1
459.27	1091.61
459.627	1055.87
459.984	1060.66
460.341	1048.27
460.697	1072.2
461.054	1058.41
461.411	1021.81
461.767	992.51
462.124	1024.06
462.481	1000.4
462.837	995.05
463.194	1006.88
463.55	1049.12
463.907	1079.8
464.263	1068.54
464.619	1063.19
464.976	1127.33
465.332	1137.46
465.688	1111.59
466.044	1047.71
466.4	1055.59
466.756	1013.92
467.112	1073.32
467.468	1033.35
467.824	989.98
468.18	994.49
468.536	996.74
468.892	999.56
469.248	989.98
469.604	955.88
469.959	992.23
470.315	1000.12
470.671	969.41
471.026	951.37
471.382	978.99
471.737	968.84
472.093	1028
472.448	1019.84
472.804	1066.29
473.159	1070.79
473.514	1063.76
473.87	1078.67
474.225	1090.49
474.58	1109.05
474.935	1120.87
475.29	1106.24
475.645	1141.67
476	1124.52
476.355	1104.84
476.71	1082.89
477.065	1124.52
477.42	1124.24
477.775	1116.09
478.13	1135.77
478.485	1120.02
478.839	1133.24
479.194	1197.32
479.549	1200.41
479.903	1202.66
480.258	1208
480.612	1212.21
480.967	1246.47
481.321	1245.34
481.675	1240.85
482.03	1188.61
482.384	1179.34
482.738	1197.6
483.093	1206.59
483.447	1228.5
483.801	1252.92
484.155	1318.02
484.509	1364
484.863	2149.42
485.217	2838.88
485.571	3277.77
485.925	2797.91
486.279	2275.51
486.632	1880.74
486.986	1563.3
487.34	1385.58
487.694	1296.14
488.047	1254.33
488.401	1244.78
488.754	1231.87
489.108	1188.89
489.461	1203.78
489.815	1170.63
490.168	1187.77
490.522	1156.01
490.875	1185.24
491.228	1188.89
491.581	1192.83
491.935	1199.57
492.288	1191.7
492.641	1220.35
492.994	1172.88
493.347	1205.19
493.7	1235.24
494.053	1217.26
494.406	1174.84
494.759	1176.53
495.111	1200.69
495.464	1207.15
495.817	1283.8
496.169	1256.01
496.522	1204.06
496.875	1178.78
497.227	1152.64
497.58	1107.65
497.932	1158.82
498.285	1152.08
498.637	1178.5
498.989	1152.08
499.342	1198.44
499.694	1191.7
500.046	1136.33
500.398	1130.15
500.751	1167.54
501.103	1202.66
501.455	1179.34
501.807	1191.42
502.159	1201.53
502.511	1192.26
502.862	1233.83
503.214	1171.47
503.566	1158.26
503.918	1159.1
504.27	1157.98
504.621	1158.26
504.973	1108.77
505.324	1130.99
505.676	1128.74
506.027	1154.33
506.379	1166.13
506.73	1096.4
507.082	1124.8
507.433	1112.99
507.784	1138.02
508.136	1120.3
508.487	1094.15
508.838	1103.71
509.189	1085.42
509.54	1083.74
509.891	1098.65
510.242	1072.76
510.593	1113.55
510.944	1085.99
511.295	1046.58
511.646	1053.06
511.996	1047.43
512.347	1060.94
512.698	1062.91
513.049	1038.98
513.399	1028.57
513.75	1022.65
514.1	1013.92
514.451	999.27
514.801	1000.96
515.152	971.1
515.502	992.8
515.852	1039.55
516.202	1043.77
516.553	1013.64
516.903	1013.64
517.253	994.77
517.603	994.49
517.953	982.93
518.303	995.61
518.653	1025.19
519.003	1011.11
519.353	999.84
519.703	972.79
520.052	962.08
520.402	946.3
520.752	972.51
521.102	976.74
521.451	919.23
521.801	929.38
522.15	964.05
522.5	960.39
522.849	962.36
523.199	966.59
523.548	1018.99
523.897	952.78
524.246	984.91
524.596	944.32
524.945	948.83
525.294	953.34
525.643	985.19
525.992	932.2
526.341	948.55
526.69	928.53
527.039	975.04
527.388	935.86
527.737	970.25
528.086	976.45
528.434	989.7
528.783	991.1
529.132	989.98
529.48	963.77
529.829	955.88
530.177	966.87
530.526	946.3
530.874	942.35
531.223	954.47
531.571	944.89
531.919	951.93
532.268	964.34
532.616	1019.27
532.964	1020.96
533.312	1029.69
533.66	1039.26
534.008	1055.59
534.356	1015.61
534.704	1029.41
535.052	1035.89
535.4	1035.6
535.748	966.03
536.095	960.39
536.443	953.91
536.791	946.01
537.139	977.58
537.486	1017.86
537.834	1013.08
538.181	1017.58
538.529	1040.11
538.876	1022.09
539.223	1003.78
539.571	1022.09
539.918	989.13
540.265	971.94
540.613	1004.91
540.96	1002.37
541.307	1000.96
541.654	984.62
542.001	1000.68
542.348	996.46
542.695	995.05
543.042	1032.51
543.388	1035.32
543.735	1017.58
544.082	995.61
544.429	1022.93
544.775	1073.04
545.122	998.71
545.469	961.8
545.815	970.82
546.162	938.4
546.508	957.85
546.854	1016.17
547.201	1019.27
547.547	1056.72
547.893	1069.67
548.24	1035.89
548.586	973.35
548.932	942.91
549.278	944.32
549.624	918.38
549.97	952.78
550.316	934.45
550.662	935.58
551.008	933.61
551.353	971.94
551.699	1001.53
552.045	1004.06
552.391	982.93
552.736	966.59
553.082	975.61
553.427	994.77
553.773	979.83
554.118	936.43
554.464	926
554.809	942.91
555.154	989.13
555.5	1002.37
555.845	998.15
556.19	984.91
556.535	974.76
556.88	919.23
557.225	938.97
557.57	905.13
557.915	889.89
558.26	902.3
558.605	889.61
558.95	870.7
559.295	911.05
559.639	930.23
559.984	1002.65
560.329	1044.05
560.673	1029.13
561.018	1017.58
561.362	1033.63
561.707	976.17
562.051	983.22
562.395	951.37
562.74	1002.09
563.084	1007.16
563.428	1039.55
563.772	1008.29
564.117	1046.3
564.461	1033.92
564.805	1042.08
565.149	1028.57
565.493	1061.5
565.836	1027.16
566.18	1053.9
566.524	1120.02
566.868	1175.4
567.212	1202.66
567.555	1239.73
567.899	1303.16
568.242	1344.38
568.586	1469.32
568.929	1602.43
569.273	1692.06
569.616	1771.27
569.96	1859.86
570.303	1957.8
570.646	1994.22
570.989	2067.56
571.333	2099.48
571.676	2052
572.019	1934.44
572.362	1840.92
572.705	2005.33
573.048	2164.4
573.391	2349.69
573.733	2403.06
574.076	2518.52
574.419	2518.8
574.762	2376.79
575.104	2223.16
575.447	2094.21
575.789	2175.21
576.132	2328.66
576.474	2456.39
576.817	2694.15
577.159	2992.12
577.501	3132.47
577.844	3051.64
578.186	2690.3
578.528	2400.02
578.87	2297.39
579.212	2228.7
579.554	2334.75
579.896	2337.24
580.238	2430.7
580.58	2857.85
580.922	3321.77
581.264	3619.05
581.606	3548.51
581.947	3278.86
582.289	2950.96
582.631	2469.93
582.972	2126.67
583.314	1974.48
583.655	1956.97
583.997	2091.15
584.338	2351.07
584.679	2599.63
585.021	2689.47
585.362	2570.12
585.703	2327.28
586.044	2197.11
586.385	2210.97
586.726	2312.06
587.067	2347.2
587.408	2269.15
587.749	2136.66
588.09	1990.88
588.431	1874.06
588.772	1730.84
589.113	1630.08
589.453	1690.1
589.794	1640.69
590.134	1570.85
590.475	1488.07
590.815	1420.6
591.156	1441.33
591.496	1450.56
591.837	1658.56
592.177	1910.79
592.517	2167.72
592.857	2171.88
593.198	2081.16
593.538	1894.38
593.878	1771.55
594.218	1688.99
594.558	1721.07
594.898	1743.94
595.237	1654.38
595.577	1540.94
595.917	1431.8
596.257	1425.64
596.596	1415
596.936	1470.72
597.276	1479.95
597.615	1488.07
597.955	1524.72
598.294	1741.43
598.633	1835.63
598.973	1867.1
599.312	1831.17
599.651	1853.18
599.991	1800.81
600.33	1755.93
600.669	1704.61
601.008	1635.67
601.347	1532.83
601.686	1516.33
602.025	1527.23
602.364	1622.54
602.702	1639.58
603.041	1667.78
603.38	1611.93
603.719	1549.6
604.057	1467.36
604.396	1440.77
604.734	1447.2
605.073	1563.86
605.411	1589.58
605.75	1627.29
606.088	1520.24
606.426	1521.36
606.764	1528.91
607.103	1514.09
