Data from FLMS007011_12-37-11-424.txt Node
Date: Thu Apr 21 12:37:11 MDT 2016
User: lab_user
Spectrometer: FLMS00701
Autoset integration time: false
Trigger mode: 0
Integration Time (sec): 5.000000E-3
Scans to average: 10
Electric dark correction enabled: true
Nonlinearity correction enabled: true
Boxcar width: 0
XAxis mode: Wavelengths
Stop averaging: false
Number of Pixels in Spectrum: 2048
>>>>>Begin Spectral Data<<<<<
178.41	23.64
178.791	23.64
179.172	23.64
179.553	-48.08
179.934	-80.67
180.316	-72.09
180.697	-65.52
181.078	-39.5
181.459	-67.23
181.84	-30.07
182.221	-48.36
182.602	15.36
182.983	10.79
183.364	31.64
183.744	51.91
184.125	65.61
184.506	101.57
184.887	103.28
185.268	135.79
185.648	161.17
186.029	156.89
186.41	204.76
186.791	242.64
187.171	262
187.552	278.5
187.932	295.29
188.313	330.56
188.694	350.74
189.074	337.95
189.455	349.61
189.835	378.88
190.216	393.37
190.596	386.27
190.977	425.47
191.357	425.47
191.737	413.82
192.118	417.23
192.498	442.79
192.878	441.37
193.258	462.09
193.639	470.6
194.019	458.97
194.399	434.84
194.779	470.03
195.159	451.87
195.54	447.61
195.92	479.4
196.3	480.53
196.68	478.26
197.06	433.13
197.44	448.46
197.82	471.45
198.2	454.99
198.58	466.35
198.959	459.53
199.339	458.11
199.719	444.77
200.099	436.26
200.479	466.35
200.858	435.12
201.238	441.93
201.618	453.01
201.998	441.65
202.377	456.98
202.757	465.49
203.136	439.38
203.516	427.17
203.896	397.63
204.275	433.98
204.655	430.58
205.034	437.11
205.414	440.23
205.793	458.4
206.172	442.79
206.552	449.31
206.931	431.14
207.31	416.09
207.69	429.44
208.069	443.35
208.448	438.24
208.827	447.04
209.207	469.47
209.586	421.77
209.965	440.8
210.344	449.31
210.723	432.28
211.102	464.93
211.481	442.22
211.86	449.31
212.239	450.45
212.618	471.45
212.997	461.52
213.376	470.32
213.755	451.3
214.134	487.06
214.513	482.52
214.891	471.17
215.27	468.9
215.649	486.49
216.028	493.87
216.406	466.91
216.785	490.46
217.164	492.17
217.542	487.63
217.921	505.78
218.3	522.23
218.678	507.77
219.057	486.21
219.435	487.91
219.814	534.99
220.192	527.9
220.57	500.96
220.949	495.85
221.327	532.16
221.705	510.89
222.084	528.75
222.462	532.44
222.84	551.44
223.218	547.18
223.597	556.25
223.975	547.75
224.353	589.13
224.731	555.4
225.109	575.53
225.487	590.26
225.865	588.28
226.243	616.32
226.621	634.44
226.999	625.66
227.377	630.2
227.755	619.43
228.133	642.94
228.511	673.22
228.889	662.75
229.266	671.24
229.644	703.21
230.022	707.74
230.4	691.05
230.777	720.75
231.155	738.28
231.533	762.59
231.91	760.04
232.288	760.89
232.665	783.22
233.043	799.88
233.42	821.07
233.798	828.97
234.175	841.96
234.553	841.96
234.93	847.61
235.307	856.08
235.685	908.28
236.062	922.94
236.439	926.89
236.816	936.76
237.194	943.81
237.571	956.49
237.948	965.51
238.325	993.97
238.702	1017.91
239.079	1053.95
239.456	1038.75
239.833	1030.58
240.21	1067.18
240.587	1096.72
240.964	1120.07
241.341	1126.26
241.718	1102.63
242.095	1163.09
242.472	1167.86
242.849	1179.95
243.225	1177.14
243.602	1245.11
243.979	1217.31
244.356	1245.39
244.732	1274.58
245.109	1270.09
245.486	1295.63
245.862	1309.93
246.239	1319.75
246.615	1350.04
246.992	1319.19
247.368	1349.47
247.745	1394.6
248.121	1387.87
248.497	1400.76
248.874	1413.93
249.25	1430.73
249.626	1478.32
250.003	1467.97
250.379	1499.31
250.755	1537.63
251.131	1507.7
251.507	1519.17
251.884	1528.4
252.26	1568.66
252.636	1583.19
253.012	1561.95
253.388	1618.68
253.764	1590.46
254.14	1663.36
254.516	1642.98
254.892	1668.38
255.268	1651.91
255.643	1668.94
256.019	1662.52
256.395	1696.01
256.771	1697.69
257.147	1701.59
257.522	1736.18
257.898	1705.5
258.274	1725.58
258.649	1769.08
259.025	1763.23
259.4	1753.19
259.776	1759.05
260.151	1789.15
260.527	1768.25
260.902	1797.51
261.278	1781.63
261.653	1806.99
262.028	1784.41
262.404	1816.46
262.779	1806.99
263.154	1816.46
263.53	1805.31
263.905	1832.06
264.28	1853.22
264.655	1835.68
265.03	1842.64
265.405	1817.29
265.781	1867.98
266.156	1805.03
266.531	1850.72
266.906	1846.82
267.281	1817.57
267.655	1848.21
268.03	1855.17
268.405	1866.59
268.78	1865.75
269.155	1864.64
269.53	1859.9
269.904	1878.28
270.279	1897.76
270.654	1908.34
271.029	1872.43
271.403	1907.22
271.778	1853.5
272.152	1866.87
272.527	1872.99
272.901	1856.01
273.276	1896.93
273.65	1891.08
274.025	1899.71
274.399	1854.34
274.774	1861.85
275.148	1913.07
275.522	1859.9
275.897	1873.27
276.271	1906.39
276.645	1899.15
277.019	1916.68
277.393	1916.96
277.768	1957.01
278.142	1950.06
278.516	1898.87
278.89	1903.05
279.264	1951.17
279.638	1941.44
280.012	1973.42
280.386	1915.85
280.76	1912.79
281.133	1921.13
281.507	1921.97
281.881	1956.73
282.255	1910
282.629	1908.89
283.002	1917.24
283.376	1939.77
283.75	1957.01
284.123	1923.92
284.497	1937.55
284.87	1947.84
285.244	1992.04
285.618	1980.37
285.991	1952.56
286.364	1975.92
286.738	1955.07
287.111	1968.69
287.485	1976.47
287.858	1990.09
288.231	1940.6
288.605	1950.62
288.978	1997.88
289.351	1991.48
289.724	1993.71
290.097	1965.91
290.47	1972.03
290.843	2007.88
291.217	1964.8
291.59	1946.72
291.963	1967.3
292.336	1973.69
292.708	1965.35
293.081	1964.52
293.454	1953.95
293.827	1948.67
294.2	1931.15
294.573	1925.31
294.945	1936.15
295.318	1954.23
295.691	1901.94
296.064	1933.09
296.436	1958.96
296.809	1908.89
297.181	1915.29
297.554	1925.58
297.926	1926.14
298.299	1912.23
298.671	1879.11
299.044	1907.22
299.416	1915.29
299.788	1907.78
300.161	1906.94
300.533	1906.39
300.905	1940.05
301.278	1918.07
301.65	1918.91
302.022	1918.63
302.394	1886.91
302.766	1900.54
303.138	1877.17
303.51	1892.75
303.882	1926.98
304.254	1922.25
304.626	1896.65
304.998	1922.8
305.37	1921.41
305.742	1920.3
306.114	1967.02
306.485	1911.12
306.857	1931.15
307.229	1929.76
307.601	1933.93
307.972	1898.32
308.344	1867.14
308.716	1918.07
309.087	1890.8
309.459	1917.52
309.83	1904.44
310.202	1901.66
310.573	1910.28
310.945	1916.4
311.316	1897.76
311.687	1923.92
312.059	1894.42
312.43	1918.07
312.801	1899.15
313.172	1918.35
313.544	1890.53
313.915	1938.94
314.286	1913.9
314.657	1916.68
315.028	1875.49
315.399	1920.86
315.77	1918.63
316.141	1903.05
316.512	1928.37
316.883	1854.89
317.254	1892.75
317.625	1913.9
317.996	1897.2
318.366	1900.54
318.737	1875.22
319.108	1888.86
319.478	1904.16
319.849	1869.93
320.22	1848.77
320.59	1891.08
320.961	1885.52
321.331	1881.34
321.702	1900.54
322.072	1861.58
322.443	1876.33
322.813	1851.27
323.184	1875.22
323.554	1848.21
323.924	1790.27
324.295	1849.88
324.665	1854.89
325.035	1801.41
325.405	1824.81
325.775	1862.41
326.145	1843.48
326.515	1853.5
326.886	1809.21
327.256	1800.58
327.626	1738.97
327.995	1738.41
328.365	1754.86
328.735	1760.72
329.105	1799.46
329.475	1840.97
329.845	1834.56
330.215	1831.78
330.584	1842.36
330.954	1849.88
331.324	1874.94
331.693	1881.06
332.063	1873.27
332.432	1871.04
332.802	1918.07
333.171	1909.73
333.541	1870.21
333.91	1878.28
334.28	1888.86
334.649	1873.27
335.018	1842.08
335.388	1795
335.757	1833.17
336.126	1810.61
336.495	1770.48
336.865	1788.32
337.234	1755.14
337.603	1781.35
337.972	1775.22
338.341	1816.18
338.71	1809.21
339.079	1774.1
339.448	1789.15
339.817	1815.9
340.186	1784.41
340.554	1773.82
340.923	1774.1
341.292	1771.87
341.661	1767.41
342.029	1781.9
342.398	1775.22
342.767	1764.07
343.135	1795.56
343.504	1789.71
343.872	1769.92
344.241	1779.12
344.609	1749.29
344.978	1790.82
345.346	1763.51
345.715	1779.12
346.083	1763.51
346.451	1751.8
346.82	1783.86
347.188	1797.79
347.556	1767.41
347.924	1757.65
348.292	1759.05
348.66	1738.97
349.028	1786.64
349.396	1734.51
349.764	1743.99
350.132	1778.84
350.5	1732.56
350.868	1759.33
351.236	1781.35
351.604	1754.86
351.972	1732.83
352.34	1733.95
352.707	1726.14
353.075	1751.8
353.443	1700.2
353.81	1714.98
354.178	1718.05
354.545	1717.49
354.913	1725.03
355.28	1734.51
355.648	1719.73
356.015	1735.9
356.383	1727.26
356.75	1699.08
357.117	1678.43
357.485	1702.43
357.852	1687.92
358.219	1686.8
358.586	1686.52
358.954	1661.96
359.321	1690.43
359.688	1698.52
360.055	1683.17
360.422	1671.17
360.789	1675.36
361.156	1703.54
361.523	1652.47
361.89	1670.06
362.256	1688.76
362.623	1671.73
362.99	1662.24
363.357	1672.01
363.724	1672.85
364.09	1657.49
364.457	1644.37
364.823	1678.43
365.19	1645.49
365.557	1654.7
365.923	1643.81
366.29	1633.2
366.656	1627.89
367.022	1637.39
367.389	1669.22
367.755	1634.6
368.121	1637.67
368.488	1606.67
368.854	1640.18
369.22	1637.95
369.586	1649.12
369.952	1621.19
370.318	1632.92
370.684	1609.46
371.051	1598.56
371.416	1583.47
371.782	1574.53
372.148	1562.51
372.514	1575.93
372.88	1572.85
373.246	1601.08
373.612	1577.05
373.977	1574.53
374.343	1555.52
374.709	1579
375.074	1569.78
375.44	1572.02
375.806	1568.94
376.171	1594.93
376.537	1533.71
376.902	1583.47
377.268	1612.25
377.633	1568.94
377.998	1617.56
378.364	1630.97
378.729	1586.27
379.094	1588.22
379.459	1597.17
379.825	1572.57
380.19	1578.16
380.555	1515.53
380.92	1565.03
381.285	1565.59
381.65	1566.7
382.015	1537.07
382.38	1543.5
382.745	1539.59
383.11	1542.94
383.474	1567.54
383.839	1478.32
384.204	1510.78
384.569	1497.63
384.933	1491.19
385.298	1486.16
385.663	1486.72
386.027	1499.03
386.392	1509.94
386.756	1511.34
387.121	1500.43
387.485	1520.57
387.849	1515.53
388.214	1490.08
388.578	1534.27
388.942	1506.58
389.307	1498.19
389.671	1481.96
390.035	1505.74
390.399	1515.53
390.763	1502.11
391.127	1530.08
391.492	1554.96
391.856	1555.24
392.219	1585.43
392.583	1598
392.947	1554.4
393.311	1499.59
393.675	1492.03
394.039	1449.77
394.403	1506.58
394.766	1481.68
395.13	1463.49
395.494	1481.12
395.857	1464.61
396.221	1471.89
396.584	1500.99
396.948	1534.83
397.311	1531.2
397.675	1560.83
398.038	1570.9
398.401	1554.96
398.765	1543.78
399.128	1485.32
399.491	1444.45
399.854	1482.24
400.218	1453.13
400.581	1446.97
400.944	1453.97
401.307	1439.41
401.67	1410.29
402.033	1393.76
402.396	1434.93
402.759	1427.65
403.122	1409.73
403.485	1419.81
403.847	1446.13
404.21	1388.71
404.573	1420.93
404.936	1476.36
405.298	1447.53
405.661	1415.05
406.023	1390.67
406.386	1376.66
406.749	1363.77
407.111	1394.32
407.473	1369.94
407.836	1380.31
408.198	1403.56
408.561	1428.21
408.923	1407.48
409.285	1368.82
409.647	1401.32
410.009	1406.92
410.372	1361.25
410.734	1356.2
411.096	1381.71
411.458	1329.29
411.82	1380.31
412.182	1376.66
412.544	1376.38
412.906	1385.35
413.267	1389.83
413.629	1372.74
413.991	1385.35
414.353	1375.54
414.714	1335.18
415.076	1334.61
415.438	1350.04
415.799	1354.8
416.161	1352
416.522	1318.07
416.884	1336.86
417.245	1296.75
417.607	1318.63
417.968	1335.46
418.329	1294.23
418.691	1325.08
419.052	1310.22
419.413	1320.31
419.774	1325.36
420.135	1359.57
420.497	1404.4
420.858	1416.73
421.219	1439.41
421.58	1405.8
421.941	1422.89
422.302	1372.74
422.662	1356.76
423.023	1336.3
423.384	1328.45
423.745	1321.43
424.106	1348.35
424.466	1355.08
424.827	1373.58
425.187	1314.42
425.548	1301.8
425.909	1275.71
426.269	1280.76
426.63	1312.74
426.99	1315.83
427.35	1309.93
427.711	1306.57
428.071	1324.8
428.431	1293.94
428.792	1381.43
429.152	1408.04
429.512	1484.76
429.872	1466.01
430.232	1455.93
430.592	1401.88
430.952	1349.19
431.312	1324.24
431.672	1306.85
432.032	1264.48
432.392	1271.22
432.752	1331.53
433.111	1417.01
433.471	1440.25
433.831	1372.74
434.19	1319.19
434.55	1317.79
434.91	1285.25
435.269	1329.29
435.629	1337.14
435.988	1362.37
436.348	1346.95
436.707	1304.32
437.066	1304.89
437.426	1285.25
437.785	1301.8
438.144	1341.34
438.503	1257.46
438.862	1289.74
439.222	1296.19
439.581	1275.71
439.94	1274.3
440.299	1293.1
440.658	1349.47
441.017	1380.31
441.376	1357.6
441.734	1355.92
442.093	1344.71
442.452	1401.88
442.811	1367.98
443.169	1366.29
443.528	1354.8
443.887	1361.53
444.245	1312.18
444.604	1328.45
444.962	1337.98
445.321	1342.75
445.679	1314.42
446.038	1338.26
446.396	1298.15
446.754	1293.1
447.112	1293.66
447.471	1279.63
447.829	1213.94
448.187	1245.95
448.545	1257.18
448.903	1254.09
449.261	1276.55
449.619	1265.6
449.977	1233.04
450.335	1237.81
450.693	1226.86
451.051	1195.96
451.409	1209.17
451.766	1212.26
452.124	1202.71
452.482	1172.64
452.839	1167.58
453.197	1165.62
453.555	1146.78
453.912	1150.44
454.27	1136.38
454.627	1184.44
454.984	1158.31
455.342	1183.88
455.699	1185.01
456.056	1123.16
456.414	1164.77
456.771	1174.05
457.128	1176.86
457.485	1212.54
457.842	1205.51
458.199	1211.41
458.556	1188.38
458.913	1210.85
459.27	1229.39
459.627	1234.44
459.984	1188.38
460.341	1182.2
460.697	1186.41
461.054	1189.5
461.411	1122.04
461.767	1099.26
462.124	1089.41
462.481	1105.73
462.837	1133.29
463.194	1136.94
463.55	1149.59
463.907	1203.27
464.263	1179.95
464.619	1227.98
464.976	1235.85
465.332	1285.53
465.688	1233.88
466.044	1233.04
466.4	1186.69
466.756	1153.81
467.112	1158.03
467.468	1156.9
467.824	1136.1
468.18	1138.91
468.536	1116.13
468.892	1090.53
469.248	1111.91
469.604	1092.79
469.959	1092.22
470.315	1048.88
470.671	1080.69
471.026	1090.25
471.382	1098.41
471.737	1128.51
472.093	1118.95
472.448	1115.57
472.804	1188.94
473.159	1177.7
473.514	1158.31
473.87	1205.8
474.225	1214.78
474.58	1250.44
474.935	1305.45
475.29	1245.11
475.645	1244.27
476	1220.4
476.355	1225.17
476.71	1217.59
477.065	1238.93
477.42	1274.58
477.775	1270.93
478.13	1290.58
478.485	1271.22
478.839	1284.12
479.194	1362.37
479.549	1349.47
479.903	1374.7
480.258	1352.56
480.612	1370.5
480.967	1429.33
481.321	1385.35
481.675	1408.88
482.03	1397.12
482.384	1357.88
482.738	1353.68
483.093	1364.61
483.447	1385.35
483.801	1422.61
484.155	1458.45
484.509	1596.61
484.863	2530.44
485.217	3431.04
485.571	3857.23
485.925	3273.17
486.279	2569.62
486.632	2111.18
486.986	1756.54
487.34	1563.63
487.694	1440.53
488.047	1432.13
488.401	1398.52
488.754	1374.98
489.108	1349.76
489.461	1354.8
489.815	1348.63
490.168	1338.82
490.522	1375.54
490.875	1355.08
491.228	1347.23
491.581	1318.07
491.935	1320.03
492.288	1316.11
492.641	1337.42
492.994	1339.1
493.347	1358.73
493.7	1357.88
494.053	1364.61
494.406	1355.36
494.759	1330.41
495.111	1323.96
495.464	1397.68
495.817	1408.6
496.169	1460.41
496.522	1406.08
496.875	1295.07
497.227	1281.6
497.58	1263.64
497.932	1267.29
498.285	1307.97
498.637	1358.73
498.989	1333.77
499.342	1346.95
499.694	1316.67
500.046	1319.47
500.398	1292.54
500.751	1310.22
501.103	1357.32
501.455	1357.04
501.807	1338.54
502.159	1395.44
502.511	1376.38
502.862	1373.3
503.214	1348.07
503.566	1324.52
503.918	1281.32
504.27	1279.92
504.621	1254.37
504.973	1241.74
505.324	1260.83
505.676	1274.02
506.027	1305.17
506.379	1256.62
506.73	1231.91
507.082	1222.93
507.433	1237.81
507.784	1234.72
508.136	1240.62
508.487	1232.48
508.838	1244.27
509.189	1218.72
509.54	1244.83
509.891	1226.58
510.242	1240.34
510.593	1194.56
510.944	1209.45
511.295	1193.15
511.646	1177.7
511.996	1173.48
512.347	1146.78
512.698	1143.13
513.049	1157.46
513.399	1145.1
513.75	1141.72
514.1	1126.26
514.451	1125.41
514.801	1096.44
515.152	1128.51
515.502	1122.04
515.852	1152.69
516.202	1158.31
516.553	1161.96
516.903	1136.66
517.253	1141.16
517.603	1090.82
517.953	1097.57
518.303	1083.5
518.653	1142.57
519.003	1143.41
519.353	1093.91
519.703	1046.07
520.052	1075.06
520.402	1068.87
520.752	1039.59
521.102	1062.39
521.451	1061.55
521.801	1032.27
522.15	1064.65
522.5	1040.16
522.849	1066.9
523.199	1071.96
523.548	1095.6
523.897	1093.35
524.246	1069.71
524.596	1058.17
524.945	1059.86
525.294	1022.7
525.643	1040.72
525.992	1028.89
526.341	1038.19
526.69	1069.43
527.039	1051.42
527.388	1021.01
527.737	1045.22
528.086	1081.81
528.434	1138.07
528.783	1133.01
529.132	1091.1
529.48	1087.72
529.829	1094.47
530.177	1043.82
530.526	1030.02
530.874	1091.66
531.223	1057.61
531.571	1050.57
531.919	1075.9
532.268	1075.62
532.616	1133.57
532.964	1140.32
533.312	1147.34
533.66	1140.03
534.008	1138.07
534.356	1164.77
534.704	1162.52
535.052	1162.24
535.4	1104.6
535.748	1102.91
536.095	1046.07
536.443	1048.32
536.791	994.53
537.139	1072.81
537.486	1084.63
537.834	1099.54
538.181	1112.76
538.529	1111.35
538.876	1131.88
539.223	1161.12
539.571	1113.6
539.918	1098.97
540.265	1112.2
540.613	1088.57
540.96	1136.38
541.307	1074.5
541.654	1107.98
542.001	1126.54
542.348	1133.85
542.695	1100.66
543.042	1105.16
543.388	1141.16
543.735	1103.76
544.082	1140.03
544.429	1142
544.775	1122.88
545.122	1108.82
545.469	1079.56
545.815	1069.71
546.162	1060.42
546.508	1094.75
546.854	1124.29
547.201	1167.02
547.547	1175.73
547.893	1196.81
548.24	1152.69
548.586	1099.26
548.932	1056.77
549.278	1055.36
549.624	1028.33
549.97	1008.05
550.316	997.63
550.662	990.31
551.008	1012.84
551.353	1066.05
551.699	1128.23
552.045	1142
552.391	1112.48
552.736	1095.88
553.082	1090.53
553.427	1069.43
553.773	1030.87
554.118	1013.97
554.464	1061.83
554.809	1045.79
555.154	1089.41
555.5	1100.66
555.845	1098.69
556.19	1061.27
556.535	1021.85
556.88	1015.09
557.225	1015.66
557.57	1031.15
557.915	1011.43
558.26	1014.81
558.605	957.34
558.95	959.59
559.295	1019.6
559.639	1073.37
559.984	1078.44
560.329	1132.44
560.673	1168.99
561.018	1152.69
561.362	1140.88
561.707	1098.41
562.051	1054.8
562.395	1064.36
562.74	1083.78
563.084	1091.1
563.428	1152.4
563.772	1162.52
564.117	1147.34
564.461	1148.75
564.805	1165.9
565.149	1147.06
565.493	1133.57
565.836	1160.56
566.18	1173.2
566.524	1254.09
566.868	1326.2
567.212	1375.82
567.555	1397.12
567.899	1473.56
568.242	1546.58
568.586	1635.99
568.929	1834.01
569.273	2036.22
569.616	2111.46
569.96	2174.15
570.303	2257.28
570.646	2330.09
570.989	2400.34
571.333	2490.13
571.676	2380.16
572.019	2230.41
572.362	2162.5
572.705	2370.48
573.048	2539.27
573.391	2782
573.733	2845.25
574.076	2944.69
574.419	2963.63
574.762	2768.52
575.104	2549.2
575.447	2426.05
575.789	2544.79
576.132	2728.89
576.474	2847.45
576.817	3142.65
577.159	3546.65
577.501	3740.42
577.844	3618.28
578.186	3109.78
578.528	2765.5
578.87	2619.25
579.212	2583.13
579.554	2738.25
579.896	2722.84
580.238	2907.9
580.58	3416.57
580.922	3951.37
581.264	4399.46
581.606	4175.57
581.947	3827.09
582.289	3393.1
582.631	2799.61
582.972	2450.91
583.314	2341.99
583.655	2284.97
583.997	2468.87
584.338	2783.65
584.679	3048.12
585.021	3230.78
585.362	2996.56
585.703	2711.55
586.044	2524.09
586.385	2596.37
586.726	2741
587.067	2777.6
587.408	2677.67
587.749	2479.09
588.09	2292.45
588.431	2142.25
588.772	1974.53
589.113	1855.73
589.453	1929.2
589.794	1912.23
590.134	1764.34
590.475	1690.43
590.815	1670.89
591.156	1693.78
591.496	1707.73
591.837	1906.11
592.177	2243.43
592.517	2576.79
592.857	2554.45
593.198	2448.98
593.538	2162.5
593.878	2006.21
594.218	1920.58
594.558	1995.93
594.898	1986.76
595.237	1955.9
595.577	1783.3
595.917	1633.48
596.257	1597.73
596.596	1635.71
596.936	1676.48
597.276	1682.34
597.615	1655.54
597.955	1849.88
598.294	2074.26
598.633	2187.73
598.973	2181.36
599.312	2130.33
599.651	2088.42
599.991	2076.76
600.33	2010.94
600.669	1965.63
601.008	1864.64
601.347	1766.57
601.686	1767.13
602.025	1772.15
602.364	1837.35
602.702	1886.63
603.041	1939.77
603.38	1876.33
603.719	1809.77
604.057	1684.29
604.396	1634.32
