Data from FLMS007011_11-36-40-806.txt Node
Date: Thu Apr 21 11:36:40 MDT 2016
User: lab_user
Spectrometer: FLMS00701
Autoset integration time: false
Trigger mode: 0
Integration Time (sec): 5.000000E-3
Scans to average: 10
Electric dark correction enabled: true
Nonlinearity correction enabled: true
Boxcar width: 0
XAxis mode: Wavelengths
Stop averaging: false
Number of Pixels in Spectrum: 2048
>>>>>Begin Spectral Data<<<<<
178.41	30.29
178.791	30.29
179.172	30.29
179.553	-48
179.934	-68.3
180.316	-64.87
180.697	-74.02
181.078	-21.7
181.459	-39.71
181.84	-61.72
182.221	-43.42
182.602	-26.56
182.983	15.44
183.364	52.28
183.744	31.72
184.125	70.55
184.506	98.22
184.887	88.81
185.268	126.18
185.648	153.55
186.029	153.55
186.41	209.4
186.791	222.79
187.171	270.61
187.552	263.21
187.932	316.42
188.313	309.88
188.694	347.98
189.074	337.74
189.455	392.31
189.835	396.01
190.216	395.15
190.596	421
190.977	437.47
191.357	443.15
191.737	432.64
192.118	449.96
192.498	445.14
192.878	444.57
193.258	456.21
193.639	430.94
194.019	442.58
194.399	485.44
194.779	477.21
195.159	468.98
195.54	472.38
195.92	454.22
196.3	469.55
196.68	460.75
197.06	455.07
197.44	466.14
197.82	451.66
198.2	446.27
198.58	453.94
198.959	457.63
199.339	458.48
199.719	436.62
200.099	450.25
200.479	469.83
200.858	428.1
201.238	449.96
201.618	453.37
201.998	433.5
202.377	446.27
202.757	425.83
203.136	438.89
203.516	444
203.896	444.28
204.275	396.29
204.655	439.74
205.034	442.86
205.414	411.06
205.793	409.07
206.172	428.95
206.552	464.44
206.931	436.62
207.31	438.32
207.69	451.95
208.069	459.33
208.448	407.94
208.827	434.06
209.207	459.04
209.586	437.19
209.965	446.56
210.344	441.73
210.723	454.79
211.102	450.81
211.481	446.84
211.86	442.58
212.239	471.82
212.618	461.88
212.997	466.14
213.376	448.54
213.755	461.88
214.134	472.1
214.513	479.76
214.891	488.56
215.27	471.25
215.649	472.95
216.028	516.36
216.406	490.26
216.785	513.24
217.164	493.95
217.542	517.77
217.921	497.92
218.3	516.36
218.678	503.59
219.057	508.41
219.435	511.53
219.814	530.53
220.192	508.13
220.57	544.71
220.949	527.98
221.327	554.07
221.705	565.69
222.084	575.89
222.462	542.73
222.84	578.72
223.218	570.79
223.597	577.87
223.975	559.45
224.353	578.72
224.731	593.17
225.109	580.99
225.487	574.47
225.865	599.4
226.243	643.86
226.621	624.89
226.999	657.45
227.377	627.16
227.755	615.83
228.133	649.24
228.511	648.68
228.889	679.81
229.266	645.85
229.644	679.52
230.022	693.67
230.4	725.07
230.777	704.99
231.155	703.29
231.533	740.05
231.91	715.73
232.288	734.96
232.665	749.1
233.043	758.71
233.42	718
233.798	762.38
234.175	765.49
234.553	784.14
234.93	811.83
235.307	789.51
235.685	822.28
236.062	836.68
236.439	845.43
236.816	840.63
237.194	877.32
237.571	888.04
237.948	882.68
238.325	918.79
238.702	939.94
239.079	932.04
239.456	946.7
239.833	961.64
240.21	942.19
240.587	987.29
240.964	994.61
241.341	1019.4
241.718	1035.73
242.095	1060.22
242.472	1073.45
242.849	1077.95
243.225	1119.3
243.602	1122.12
243.979	1114.24
244.356	1101.58
244.732	1128.58
245.109	1143.49
245.486	1190.42
245.862	1152.48
246.239	1215.98
246.615	1180.03
246.992	1205.03
247.368	1207.56
247.745	1255.29
248.121	1284.48
248.497	1259.51
248.874	1297.67
249.25	1279.99
249.626	1320.67
250.003	1332.45
250.379	1364.13
250.755	1343.1
251.131	1400.28
251.507	1359.36
251.884	1398.88
252.26	1387.67
252.636	1392.71
253.012	1414
253.388	1454.05
253.764	1455.73
254.14	1437.53
254.516	1445.09
254.892	1499.67
255.268	1471.68
255.643	1451.81
256.019	1525.12
256.395	1526.52
256.771	1486.24
257.147	1539.38
257.522	1512.81
257.898	1508.34
258.274	1517.29
258.649	1573.21
259.025	1539.1
259.4	1574.89
259.776	1534.91
260.151	1558.96
260.527	1585.79
260.902	1589.7
261.278	1620.71
261.653	1580.76
262.028	1575.73
262.404	1588.86
262.779	1584.39
263.154	1608.14
263.53	1636.35
263.905	1584.95
264.28	1579.64
264.655	1642.49
265.03	1603.11
265.405	1627.69
265.781	1628.81
266.156	1631.04
266.531	1629.93
266.906	1627.41
267.281	1648.08
267.655	1627.41
268.03	1624.9
268.405	1615.96
268.78	1591.93
269.155	1643.61
269.53	1611.49
269.904	1623.5
270.279	1622.95
270.654	1645.29
271.029	1618.2
271.403	1648.64
271.778	1658.13
272.152	1625.18
272.527	1640.26
272.901	1654.22
273.276	1632.72
273.65	1622.39
274.025	1605.35
274.399	1625.18
274.774	1644.73
275.148	1646.12
275.522	1640.54
275.897	1628.25
276.271	1616.52
276.645	1641.1
277.019	1683.53
277.393	1667.34
277.768	1629.65
278.142	1664.55
278.516	1682.69
278.89	1657.29
279.264	1649.47
279.638	1668.74
280.012	1698.32
280.386	1659.53
280.76	1720.64
281.133	1671.53
281.507	1658.97
281.881	1658.13
282.255	1671.81
282.629	1695.81
283.002	1665.39
283.376	1683.25
283.75	1693.58
284.123	1693.58
284.497	1691.07
284.87	1742.95
285.244	1713.39
285.618	1736.26
285.991	1706.41
286.364	1748.53
286.738	1712.55
287.111	1731.52
287.485	1745.18
287.858	1769.72
288.231	1744.9
288.605	1760.8
288.978	1800.38
289.351	1765.82
289.724	1760.8
290.097	1783.65
290.47	1777.8
290.843	1794.8
291.217	1794.24
291.59	1791.18
291.963	1787.56
292.336	1772.78
292.708	1765.26
293.081	1788.39
293.454	1768.88
293.827	1767.49
294.2	1775.57
294.573	1779.2
294.945	1738.21
295.318	1756.34
295.691	1750.76
296.064	1765.54
296.436	1782.54
296.809	1763.03
297.181	1773.06
297.554	1754.38
297.926	1759.68
298.299	1732.91
298.671	1716.46
299.044	1769.16
299.416	1739.05
299.788	1744.63
300.161	1740.16
300.533	1727.61
300.905	1788.39
301.278	1777.24
301.65	1775.85
302.022	1763.58
302.394	1711.16
302.766	1757.17
303.138	1723.71
303.51	1747.13
303.882	1724.54
304.254	1734.59
304.626	1789.23
304.998	1771.39
305.37	1757.17
305.742	1740.44
306.114	1737.93
306.485	1777.52
306.857	1750.76
307.229	1725.1
307.601	1738.49
307.972	1759.96
308.344	1766.37
308.716	1776.13
309.087	1742.67
309.459	1766.65
309.83	1750.48
310.202	1760.52
310.573	1723.15
310.945	1755.5
311.316	1729.29
311.687	1754.38
312.059	1711.99
312.43	1755.5
312.801	1732.08
313.172	1717.85
313.544	1714.22
313.915	1732.63
314.286	1775.85
314.657	1744.9
315.028	1727.06
315.399	1716.18
315.77	1747.97
316.141	1722.59
316.512	1736.26
316.883	1690.23
317.254	1729.57
317.625	1744.9
317.996	1703.9
318.366	1710.6
318.737	1717.85
319.108	1734.03
319.478	1745.18
319.849	1706.69
320.22	1729.01
320.59	1712.83
320.961	1712.27
321.331	1711.99
321.702	1725.66
322.072	1677.67
322.443	1713.94
322.813	1714.5
323.184	1707.25
323.554	1736.26
323.924	1719.25
324.295	1717.85
324.665	1704.46
325.035	1710.32
325.405	1711.43
325.775	1677.39
326.145	1670.69
326.515	1654.78
326.886	1680.74
327.256	1650.87
327.626	1637.47
327.995	1658.13
328.365	1625.18
328.735	1657.01
329.105	1662.04
329.475	1684.65
329.845	1702.79
330.215	1698.32
330.584	1693.02
330.954	1708.37
331.324	1725.1
331.693	1687.16
332.063	1732.08
332.432	1716.18
332.802	1732.91
333.171	1717.85
333.541	1751.6
333.91	1739.33
334.28	1737.93
334.649	1735.42
335.018	1731.24
335.388	1707.53
335.757	1700.55
336.126	1712.55
336.495	1696.65
336.865	1657.57
337.234	1665.39
337.603	1666.23
337.972	1667.06
338.341	1663.71
338.71	1723.43
339.079	1688.83
339.448	1688.83
339.817	1683.53
340.186	1694.14
340.554	1731.8
340.923	1684.37
341.292	1688
341.661	1681.3
342.029	1697.48
342.398	1697.76
342.767	1711.71
343.135	1687.44
343.504	1685.21
343.872	1708.64
344.241	1718.69
344.609	1747.69
344.978	1677.11
345.346	1747.13
345.715	1676.83
346.083	1679.9
346.451	1699.44
346.82	1665.11
347.188	1712.27
347.556	1711.71
347.924	1682.97
348.292	1687.44
348.66	1667.06
349.028	1689.67
349.396	1696.65
349.764	1689.67
350.132	1705.85
350.5	1660.64
350.868	1677.39
351.236	1673.2
351.604	1654.5
351.972	1679.62
352.34	1673.76
352.707	1640.26
353.075	1652.27
353.443	1662.6
353.81	1680.46
354.178	1646.4
354.545	1671.81
354.913	1615.68
355.28	1621.83
355.648	1653.66
356.015	1625.74
356.383	1643.89
356.75	1667.62
357.117	1654.78
357.485	1648.92
357.852	1660.08
358.219	1659.81
358.586	1655.06
358.954	1621.27
359.321	1657.85
359.688	1614.57
360.055	1635.79
360.422	1628.53
360.789	1619.87
361.156	1622.39
361.523	1619.03
361.89	1618.48
362.256	1656.73
362.623	1627.13
362.99	1622.95
363.357	1611.77
363.724	1603.11
364.09	1598.36
364.457	1610.93
364.823	1658.69
365.19	1614.01
365.557	1624.06
365.923	1607.58
366.29	1600.6
366.656	1598.36
367.022	1623.78
367.389	1604.23
367.755	1618.76
368.121	1592.77
368.488	1586.35
368.854	1547.77
369.22	1582.71
369.586	1579.92
369.952	1575.17
370.318	1566.78
370.684	1546.09
371.051	1540.22
371.416	1529.32
371.782	1532.39
372.148	1537.99
372.514	1551.13
372.88	1546.65
373.246	1553.64
373.612	1545.54
373.977	1521.49
374.343	1530.71
374.709	1579.36
375.074	1517.29
375.44	1533.79
375.806	1538.82
376.171	1533.79
376.537	1550.29
376.902	1546.37
377.268	1504.98
377.633	1544.42
377.998	1555.32
378.364	1574.05
378.729	1553.92
379.094	1551.69
379.459	1541.9
379.825	1513.65
380.19	1543.58
380.555	1511.7
380.92	1495.19
381.285	1481.48
381.65	1510.02
382.015	1501.62
382.38	1498.83
382.745	1497.43
383.11	1473.92
383.474	1480.08
383.839	1507.5
384.204	1454.89
384.569	1475.04
384.933	1458.81
385.298	1461.61
385.663	1462.17
386.027	1477.56
386.392	1458.25
386.756	1489.31
387.121	1459.93
387.485	1526.52
387.849	1536.87
388.214	1523.72
388.578	1492.11
388.942	1416.53
389.307	1454.05
389.671	1436.69
390.035	1457.13
390.399	1470.28
390.763	1474.48
391.127	1463.29
391.492	1512.53
391.856	1497.15
392.219	1524.56
392.583	1547.49
392.947	1535.19
393.311	1502.74
393.675	1488.75
394.039	1488.47
394.403	1471.96
394.766	1454.89
395.13	1462.73
395.494	1464.69
395.857	1464.13
396.221	1459.65
396.584	1447.05
396.948	1442.85
397.311	1544.42
397.675	1518.41
398.038	1562.31
398.401	1497.71
398.765	1501.9
399.128	1461.89
399.491	1450.41
399.854	1430.81
400.218	1410.64
400.581	1437.53
400.944	1412.6
401.307	1412.04
401.67	1399.16
402.033	1370.3
402.396	1390.75
402.759	1393.83
403.122	1379.54
403.485	1373.94
403.847	1420.17
404.21	1428.01
404.573	1442.57
404.936	1430.53
405.298	1402.8
405.661	1382.63
406.023	1355.72
406.386	1383.75
406.749	1373.1
407.111	1371.42
407.473	1353.48
407.836	1356.56
408.198	1373.66
408.561	1399.16
408.923	1430.25
409.285	1378.7
409.647	1365.25
410.009	1356.28
410.372	1335.81
410.734	1368.05
411.096	1345.63
411.458	1311.13
411.82	1322.91
412.182	1380.38
412.544	1369.17
412.906	1388.79
413.267	1344.79
413.629	1340.86
413.991	1328.8
414.353	1332.45
414.714	1316.18
415.076	1303.28
415.438	1323.48
415.799	1318.71
416.161	1299.35
416.522	1310.29
416.884	1317.59
417.245	1324.04
417.607	1308.61
417.968	1270.17
418.329	1317.02
418.691	1304.96
419.052	1318.99
419.413	1324.6
419.774	1343.38
420.135	1364.97
420.497	1352.36
420.858	1375.34
421.219	1375.34
421.58	1389.35
421.941	1392.43
422.302	1332.45
422.662	1345.91
423.023	1329.36
423.384	1307.21
423.745	1319.27
424.106	1339.74
424.466	1326
424.827	1321.23
425.187	1297.11
425.548	1248.84
425.909	1236.2
426.269	1256.98
426.63	1262.59
426.99	1286.45
427.35	1310.29
427.711	1291.78
428.071	1274.1
428.431	1333.85
428.792	1353.2
429.152	1418.49
429.512	1455.17
429.872	1430.25
430.232	1462.73
430.592	1408.4
430.952	1342.82
431.312	1327.4
431.672	1245.75
432.032	1241.26
432.392	1254.17
432.752	1306.37
433.111	1398.6
433.471	1391.59
433.831	1354.04
434.19	1333.29
434.55	1324.88
434.91	1308.61
435.269	1332.45
435.629	1332.45
435.988	1340.3
436.348	1312.82
436.707	1292.9
437.066	1301.32
437.426	1273.82
437.785	1264.28
438.144	1260.07
438.503	1256.98
438.862	1265.12
439.222	1241.26
439.581	1246.03
439.94	1244.35
440.299	1303.56
440.658	1366.09
441.017	1393.83
441.376	1394.67
441.734	1340.86
442.093	1359.08
442.452	1356
442.811	1356
443.169	1333.85
443.528	1324.88
443.887	1303.56
444.245	1304.96
444.604	1327.12
444.962	1305.24
445.321	1313.66
445.679	1283.08
446.038	1304.68
446.396	1325.16
446.754	1263.15
447.112	1251.36
447.471	1261.47
447.829	1225.81
448.187	1283.64
448.545	1267.93
448.903	1228.34
449.261	1233.4
449.619	1223.57
449.977	1208.4
450.335	1238.17
450.693	1208.4
451.051	1196.04
451.409	1210.37
451.766	1175.53
452.124	1158.67
452.482	1160.63
452.839	1142.08
453.197	1128.87
453.555	1128.87
453.912	1134.77
454.27	1164.85
454.627	1137.3
454.984	1161.2
455.342	1213.74
455.699	1138.43
456.056	1129.43
456.414	1167.1
456.771	1176.65
457.128	1196.88
457.485	1143.77
457.842	1188.46
458.199	1182.27
458.556	1204.47
458.913	1201.1
459.27	1211.49
459.627	1182.84
459.984	1203.63
460.341	1179.46
460.697	1171.03
461.054	1142.64
461.411	1149.11
461.767	1106.09
462.124	1094.83
462.481	1093.15
462.837	1111.15
463.194	1152.76
463.55	1147.14
463.907	1155.86
464.263	1188.17
464.619	1227.5
464.976	1246.03
465.332	1251.36
465.688	1251.65
466.044	1228.62
466.4	1172.44
466.756	1173.28
467.112	1096.52
467.468	1123.24
467.824	1094.55
468.18	1084.14
468.536	1113.4
468.892	1106.37
469.248	1088.08
469.604	1083.86
469.959	1074.01
470.315	1069.23
470.671	1085.27
471.026	1057.13
471.382	1095.96
471.737	1091.18
472.093	1110.02
472.448	1140.96
472.804	1152.48
473.159	1169.35
473.514	1168.5
473.87	1205.59
474.225	1201.94
474.58	1236.2
474.935	1251.65
475.29	1233.96
475.645	1240.98
476	1190.98
476.355	1209.24
476.71	1224.69
477.065	1215.14
477.42	1260.35
477.775	1296.83
478.13	1275.5
478.485	1269.89
478.839	1280.27
479.194	1310.29
479.549	1326.56
479.903	1357.68
480.258	1346.47
480.612	1341.98
480.967	1348.43
481.321	1382.35
481.675	1336.09
482.03	1339.18
482.384	1325.44
482.738	1321.79
483.093	1302.72
483.447	1374.78
483.801	1416.53
484.155	1458.53
484.509	1625.18
484.863	2594.79
485.217	3412.83
485.571	3717.12
485.925	3107.94
486.279	2492.7
486.632	2091
486.986	1717.85
487.34	1532.95
487.694	1440.05
488.047	1384.31
488.401	1390.47
488.754	1346.75
489.108	1337.5
489.461	1308.61
489.815	1326.56
490.168	1343.38
490.522	1335.53
490.875	1317.31
491.228	1322.91
491.581	1322.35
491.935	1302.72
492.288	1304.68
492.641	1321.23
492.994	1304.96
493.347	1366.93
493.7	1350.67
494.053	1306.65
494.406	1345.91
494.759	1297.95
495.111	1278.59
495.464	1381.51
495.817	1441.45
496.169	1407.28
496.522	1398.32
496.875	1285.61
497.227	1275.22
497.58	1270.73
497.932	1267.65
498.285	1284.2
498.637	1277.75
498.989	1307.49
499.342	1332.17
499.694	1329.65
500.046	1281.12
500.398	1307.77
500.751	1340.86
501.103	1352.08
501.455	1310.29
501.807	1357.68
502.159	1336.09
502.511	1325.16
502.862	1345.91
503.214	1337.78
503.566	1293.74
503.918	1263.15
504.27	1279.71
504.621	1260.63
504.973	1240.7
505.324	1256.98
505.676	1281.4
506.027	1271.29
506.379	1283.36
506.73	1224.69
507.082	1205.31
507.433	1249.68
507.784	1240.98
508.136	1236.2
508.487	1223.57
508.838	1219.36
509.189	1231.71
509.54	1217.39
509.891	1173.84
510.242	1238.45
510.593	1191.55
510.944	1165.69
511.295	1161.76
511.646	1158.1
511.996	1145.74
512.347	1160.63
512.698	1165.13
513.049	1138.99
513.399	1140.96
513.75	1174.41
514.1	1153.89
514.451	1125.77
514.801	1076.54
515.152	1120.71
515.502	1098.77
515.852	1144.89
516.202	1119.87
516.553	1112.55
516.903	1139.27
517.253	1104.96
517.603	1059.94
517.953	1100.46
518.303	1097.65
518.653	1124.93
519.003	1124.37
519.353	1103.55
519.703	1081.05
520.052	1048.12
520.402	1037.14
520.752	1059.38
521.102	1052.62
521.451	1057.41
521.801	1039.95
522.15	1048.12
522.5	1041.36
522.849	1075.14
523.199	1084.14
523.548	1085.55
523.897	1068.66
524.246	1049.52
524.596	1048.12
524.945	1024.19
525.294	1035.45
525.643	1021.65
525.992	1101.02
526.341	1073.17
526.69	1039.95
527.039	1057.97
527.388	1023.9
527.737	1029.25
528.086	1065.01
528.434	1120.99
528.783	1077.39
529.132	1081.89
529.48	1079.92
529.829	1059.94
530.177	1030.94
530.526	1056.84
530.874	1062.75
531.223	1030.94
531.571	1055.72
531.919	1050.09
532.268	1036.01
532.616	1080.2
532.964	1129.71
533.312	1128.02
533.66	1135.61
534.008	1118.46
534.356	1148.55
534.704	1144.05
535.052	1110.87
535.4	1110.59
535.748	1094.55
536.095	1030.94
536.443	1011.79
536.791	1048.12
537.139	1075.7
537.486	1072.32
537.834	1088.92
538.181	1119.02
538.529	1102.71
538.876	1115.65
539.223	1104.96
539.571	1085.55
539.918	1090.33
540.265	1066.98
540.613	1105.24
540.96	1096.8
541.307	1123.24
541.654	1110.59
542.001	1108.05
542.348	1088.64
542.695	1108.05
543.042	1093.99
543.388	1121.27
543.735	1099.33
544.082	1145.17
544.429	1129.43
544.775	1090.61
545.122	1090.61
545.469	1054.59
545.815	1043.05
546.162	1035.17
546.508	1050.09
546.854	1100.46
547.201	1157.54
547.547	1157.26
547.893	1213.74
548.24	1147.7
548.586	1054.03
548.932	1081.33
549.278	1016.3
549.624	1020.52
549.97	1024.19
550.316	997.71
550.662	1006.44
551.008	1012.64
551.353	1065.29
551.699	1109.46
552.045	1101.87
552.391	1110.87
552.736	1096.52
553.082	1064.44
553.427	1062.47
553.773	1038.83
554.118	1019.96
554.464	1021.09
554.809	1030.94
555.154	1080.48
555.5	1112.55
555.845	1069.79
556.19	1041.64
556.535	1025.31
556.88	1007.85
557.225	1031.51
557.57	988.69
557.915	997.43
558.26	976.01
558.605	968.97
558.95	969.25
559.295	1018.83
559.639	1054.03
559.984	1143.21
560.329	1178.06
560.673	1167.66
561.018	1109.46
561.362	1115.37
561.707	1063.32
562.051	1068.66
562.395	1046.99
562.74	1059.1
563.084	1089.49
563.428	1123.52
563.772	1126.34
564.117	1117.34
564.461	1129.15
564.805	1166.82
565.149	1139.27
565.493	1141.8
565.836	1150.23
566.18	1190.42
566.524	1238.73
566.868	1324.6
567.212	1330.21
567.555	1385.15
567.899	1457.97
568.242	1504.98
568.586	1667.06
568.929	1781.7
569.273	1954.31
569.616	2066.57
569.96	2160.36
570.303	2236.31
570.646	2317.99
570.989	2414.24
571.333	2381.34
571.676	2322.14
572.019	2190.58
572.362	2162.3
572.705	2290.87
573.048	2520.03
573.391	2663.43
573.733	2805.74
574.076	2896.71
574.419	2903.3
574.762	2740.26
575.104	2525.82
575.447	2396.55
575.789	2533.55
576.132	2707.22
576.474	2814.26
576.817	3115.61
577.159	3456.21
577.501	3629.24
577.844	3501.75
578.186	3070.13
578.528	2734.48
578.87	2600.86
579.212	2585.69
579.554	2695.65
579.896	2689.87
580.238	2862.64
580.58	3365.6
580.922	3845.36
581.264	4289.69
581.606	4043.58
581.947	3713.58
582.289	3296.48
582.631	2831.86
582.972	2463.15
583.314	2287.54
583.655	2249.33
583.997	2416.73
584.338	2727.32
584.679	2987.31
585.021	3076.7
585.362	2905.5
585.703	2644.96
586.044	2519.48
586.385	2557.28
586.726	2669.21
587.067	2755.39
587.408	2560.87
587.749	2377.75
588.09	2255.7
588.431	2094.61
588.772	1942.63
589.113	1866.94
589.453	1884.2
589.794	1846.06
590.134	1721.48
590.475	1644.45
590.815	1622.95
591.156	1632.72
591.496	1653.1
591.837	1866.94
592.177	2194.19
592.517	2447.95
592.857	2490.49
593.198	2344.83
593.538	2145.11
593.878	2007.68
594.218	1929.56
594.558	1955.7
594.898	1958.76
595.237	1857.2
595.577	1725.1
595.917	1622.11
596.257	1613.73
596.596	1606.74
596.936	1680.74
597.276	1651.15
597.615	1634.68
597.955	1793.13
598.294	2002.4
598.633	2120.69
598.973	2119.86
599.312	2088.78
599.651	2094.05
599.991	2058.52
600.33	2010.46
600.669	1902.29
601.008	1843.83
601.347	1746.58
601.686	1778.92
602.025	1759.68
602.364	1774.74
602.702	1847.73
603.041	1907.3
603.38	1839.93
603.719	1785.61
604.057	1652.55
604.396	1636.35
604.734	1624.06
