Data from FLMS007011_11-11-59-119.txt Node
Date: Thu Apr 21 11:11:59 MDT 2016
User: lab_user
Spectrometer: FLMS00701
Autoset integration time: false
Trigger mode: 0
Integration Time (sec): 5.000000E-3
Scans to average: 10
Electric dark correction enabled: true
Nonlinearity correction enabled: true
Boxcar width: 0
XAxis mode: Wavelengths
Stop averaging: false
Number of Pixels in Spectrum: 2048
>>>>>Begin Spectral Data<<<<<
178.41	20.8
178.791	20.8
179.172	20.8
179.553	-3.19
179.934	-72.08
180.316	-82.66
180.697	-61.78
181.078	-51.78
181.459	-41.49
181.84	-40.06
182.221	-17.76
182.602	-9.19
182.983	17.09
183.364	2.24
183.744	55.35
184.125	79.04
184.506	55.93
184.887	107.57
185.268	114.71
185.648	137.23
186.029	208.2
186.41	201.64
186.791	222.44
187.171	272.83
187.552	377.76
187.932	419.23
188.313	433.15
188.694	453.02
189.074	491.62
189.455	477.43
189.835	564.49
190.216	547.48
190.596	534.16
190.977	533.02
191.357	565.06
191.737	568.46
192.118	602.46
192.498	604.44
192.878	617.75
193.258	642.95
193.639	616.9
194.019	645.78
194.399	666.16
194.779	660.5
195.159	683.71
195.54	685.4
195.92	682.57
196.3	679.46
196.68	741.12
197.06	702.38
197.44	727.83
197.82	700.4
198.2	738.58
198.58	717.09
198.959	718.5
199.339	728.4
199.719	781.82
200.099	773.06
200.479	771.36
200.858	826.17
201.238	867.1
201.618	866.82
201.998	885.72
202.377	899.55
202.757	884.03
203.136	947.77
203.516	926.9
203.896	941.57
204.275	916.19
204.655	953.12
205.034	973.42
205.414	999.06
205.793	1010.04
206.172	1026.66
206.552	1089.14
206.931	1107.71
207.31	1163.38
207.69	1223.51
208.069	1267.58
208.448	1327.62
208.827	1330.7
209.207	1373.6
209.586	1389.29
209.965	1427.67
210.344	1457.63
210.723	1425.15
211.102	1444.75
211.481	1442.23
211.86	1462.66
212.239	1507.72
212.618	1503.8
212.997	1513.59
213.376	1592.99
213.755	1642.99
214.134	1744.01
214.513	1811.74
214.891	1874.4
215.27	1930.33
215.649	2077.89
216.028	2156.14
216.406	2189.69
216.785	2272.25
217.164	2373.81
217.542	2415.28
217.921	2467.23
218.3	2428
218.678	2495.4
219.057	2523.55
219.435	2536.53
219.814	2591.7
220.192	2599.14
220.57	2640.77
220.949	2717.07
221.327	2785.87
221.705	2901.04
222.084	2952.39
222.462	3089.8
222.84	3271.27
223.218	3443.87
223.597	3604.41
223.975	3837.69
224.353	4054.89
224.731	4165.31
225.109	4453.94
225.487	4554.42
225.865	4732.2
226.243	4808.47
226.621	4884.95
226.999	5115.85
227.377	5186.99
227.755	5242.84
228.133	5345.37
228.511	5374.98
228.889	5437.38
229.266	5542.62
229.644	5671.68
230.022	5662.64
230.4	5792.33
230.777	5884.97
231.155	6042.43
231.533	6271.81
231.91	6548.88
232.288	6753.95
232.665	7044.65
233.043	7425.51
233.42	7727.41
233.798	8117.58
234.175	8477.18
234.553	8772.7
234.93	9145.53
235.307	9502.12
235.685	9743.75
236.062	9924.55
236.439	10176.15
236.816	10407.16
237.194	10526.73
237.571	10581.51
237.948	10676.24
238.325	10876.71
238.702	10916.11
239.079	11019.78
239.456	11004.54
239.833	11151.55
240.21	11198.5
240.587	11222.6
240.964	11388.92
241.341	11449.47
241.718	11609.99
242.095	11697.28
242.472	11925.26
242.849	12195.33
243.225	12500.74
243.602	12702.55
243.979	13188.11
244.356	13433.83
244.732	13908.67
245.109	14313.13
245.486	14650.11
245.862	15051.86
246.239	15327.23
246.615	15656.97
246.992	15887.34
247.368	16132.92
247.745	16300.01
248.121	16647.8
248.497	16576.73
248.874	16793.84
249.25	17001.92
249.626	17083.54
250.003	16979.91
250.379	17161.19
250.755	16987.33
251.131	17176.76
251.507	17010.83
251.884	17171.08
252.26	17094.17
252.636	17159.45
253.012	17163.16
253.388	17348.06
253.764	17402.18
254.14	17421.95
254.516	17497.06
254.892	17620.56
255.268	17834.15
255.643	18046.64
256.019	18422.78
256.395	18575.63
256.771	19048.93
257.147	19479.53
257.522	19673.2
257.898	20063.59
258.274	20279.97
258.649	20658.53
259.025	21019
259.4	21076.24
259.776	21498.72
260.151	21542.68
260.527	21714.82
260.902	21918.37
261.278	21959.86
261.653	21991.53
262.028	21905.36
262.404	21965.51
262.779	21889.4
263.154	21879.33
263.53	22036.71
263.905	21713.84
264.28	21568.71
264.655	21508.54
265.03	21271.78
265.405	21293.88
265.781	21225.35
266.156	21016.05
266.531	20998.12
266.906	20835.21
267.281	20908.44
267.655	20656.56
268.03	20656.07
268.405	20642.8
268.78	20798.11
269.155	20969.37
269.53	20771.32
269.904	20986.08
270.279	21252.37
270.654	21434.13
271.029	21536.05
271.403	21857.73
271.778	22089.98
272.152	22148.65
272.527	22498.69
272.901	23027.34
273.276	23106.61
273.65	23250.65
274.025	23529.9
274.399	23526.96
274.774	23710.26
275.148	23888.89
275.522	23948.76
275.897	23931.09
276.271	23695.78
276.645	24020.16
277.019	24136.22
277.393	24006.91
277.768	23883.74
278.142	23759.58
278.516	23591
278.89	23693.57
279.264	23450.4
279.638	23442.55
280.012	23361.57
280.386	22955.19
280.76	22941.94
281.133	22886.48
281.507	22629.27
281.881	22738
282.255	22431.68
282.629	22338.16
283.002	22020.01
283.376	22060.77
283.75	21903.64
284.123	21867.55
284.497	21741.09
284.87	21767.12
285.244	21786.03
285.618	21861.65
285.991	21643.61
286.364	21825.07
286.738	21945.87
287.111	22200.21
287.485	22276.06
287.858	22360.75
288.231	22390.69
288.605	22659.95
288.978	22865.62
289.351	22998.63
289.724	23062.43
290.097	23139.25
290.47	23363.04
290.843	23379.98
291.217	23362.06
291.59	23317.89
291.963	23511.01
292.336	23325.25
292.708	23433.96
293.081	23334.33
293.454	23531.13
293.827	23370.9
294.2	23129.43
294.573	23147.1
294.945	22949.79
295.318	23011.14
295.691	22913.96
296.064	22783.64
296.436	22461.14
296.809	22601.04
297.181	22279.74
297.554	22167.31
297.926	22135.15
298.299	21901.67
298.671	22042.11
299.044	21713.35
299.416	21568.96
299.788	21382.31
300.161	21196.12
300.533	21171.07
300.905	21193.91
301.278	21050.2
301.65	21069.61
302.022	20736.43
302.394	20730.04
302.766	20753.14
303.138	20593.64
303.51	20631
303.882	20546.94
304.254	20618.96
304.626	20716.77
304.998	20836.2
305.37	20634.69
305.742	20734.46
306.114	20835.95
306.485	20978.46
306.857	21169.59
307.229	21090
307.601	21254.34
307.972	21341.29
308.344	21503.14
308.716	21506.58
309.087	21760.25
309.459	21692.72
309.83	21835.38
310.202	22019.28
310.573	22237.52
310.945	22299.62
311.316	22241.45
311.687	22448.62
312.059	22388.73
312.43	22418.18
312.801	22489.37
313.172	22318.03
313.544	22439.05
313.915	22745.36
314.286	22458.93
314.657	22519.8
315.028	22525.2
315.399	22387.5
315.77	22498.69
316.141	22233.59
316.512	22270.66
316.883	22128.52
317.254	22100.29
317.625	21767.37
317.996	21972.87
318.366	21773.51
318.737	21690.51
319.108	21627.16
319.478	21407.11
319.849	21438.8
320.22	21299.04
320.59	21133.73
320.961	20900.33
321.331	20949.96
321.702	20587.5
322.072	20452.31
322.443	20411.25
322.813	20317.59
323.184	20251.7
323.554	20141.05
323.924	20001.12
324.295	19801.88
324.665	19631.13
325.035	19695.59
325.405	19436.95
325.775	19373.69
326.145	19272.76
326.515	19251.34
326.886	19118.38
327.256	19098.43
327.626	18836.35
327.995	18746.41
328.365	18736.8
328.735	18633.05
329.105	18275.81
329.475	18097.47
329.845	17889.19
330.215	18128.06
330.584	18535.69
330.954	19377.63
331.324	20407.32
331.693	21173.28
332.063	21653.68
332.432	22100.05
332.802	22048
333.171	21742.32
333.541	21087.79
333.91	20864.95
334.28	20682.61
334.649	20736.68
335.018	20678.92
335.388	20648.2
335.757	20629.28
336.126	20499.75
336.495	20632.97
336.865	20455.26
337.234	20453.78
337.603	20322.01
337.972	20329.14
338.341	20375.12
338.71	20426.74
339.079	20261.04
339.448	20343.65
339.817	20220.23
340.186	20175.97
340.554	20210.88
340.923	20177.2
341.292	19950.7
341.661	19957.83
342.029	19920.2
342.398	19719.7
342.767	19635.8
343.135	19727.33
343.504	19490.85
343.872	19634.82
344.241	19438.92
344.609	19354.49
344.978	19270.79
345.346	19365.08
345.715	19086.85
346.083	18954.35
346.451	18981.2
346.82	18761.94
347.188	18708.96
347.556	18557.88
347.924	18535.69
348.292	18256.08
348.66	18260.03
349.028	18208.48
349.396	18031.59
349.764	18054.04
350.132	17884.75
350.5	17802.3
350.868	17753.42
351.236	17639.58
351.604	17547.7
351.972	17587.71
352.34	17391.06
352.707	17459.26
353.075	17444.19
353.443	17306.54
353.81	17247.47
354.178	17238.57
354.545	17363.63
354.913	17320.14
355.28	17260.07
355.648	17335.71
356.015	17340.65
356.383	17346.33
356.75	17347.07
357.117	17398.23
357.485	17439.49
357.852	17364.13
358.219	17554.62
358.586	17607.72
358.954	17664.77
359.321	17632.42
359.688	17686.75
360.055	17760.33
360.422	17853.89
360.789	17770.45
361.156	17892.15
361.523	17810.94
361.89	17975.08
362.256	17989.15
362.623	17854.14
362.99	18034.55
363.357	17830.44
363.724	17964.22
364.09	17984.46
364.457	17921.77
364.823	18005.43
365.19	17957.31
365.557	18123.62
365.923	17984.95
366.29	17933.12
366.656	18062.43
367.022	18162.6
367.389	17965.21
367.755	17787.73
368.121	17885.24
368.488	17841.8
368.854	17740.08
369.22	17566.47
369.586	17387.11
369.952	17311.24
370.318	17079.83
370.684	17112.97
371.051	17062.03
371.416	16933.9
371.782	17016.76
372.148	16906.19
372.514	16735.68
372.88	16686.91
373.246	16655.97
373.612	16662.4
373.977	16629.97
374.343	16680.72
374.709	16854.97
375.074	16556.92
375.44	16442.49
375.806	16361.47
376.171	16307.69
376.537	16281.42
376.902	16274.23
377.268	16393.68
377.633	16347.09
377.998	16398.39
378.364	16616.1
378.729	16437.28
379.094	16328.01
379.459	15868.73
379.825	15783.6
380.19	15772.42
380.555	15489.53
380.92	15319.52
381.285	15110.59
381.65	15232.73
382.015	15208.85
382.38	15196.91
382.745	14924.15
383.11	14822.29
383.474	14830.51
383.839	14830.26
384.204	14731.36
384.569	14604.74
384.933	14613.72
385.298	14417.94
385.663	14480.31
386.027	14600
386.392	14711.42
386.756	14894.77
387.121	15072.51
387.485	15156.37
387.849	15370.98
388.214	15055.59
388.578	14932.37
388.942	14797.63
389.307	14842.22
389.671	14808.84
390.035	14973.2
390.399	15043.89
390.763	15228.75
391.127	15452.26
391.492	16029.5
391.856	16367.41
392.219	16698.8
392.583	16594.07
392.947	16056.54
393.311	15654.48
393.675	15584.44
394.039	15593.38
394.403	15569.54
394.766	15459.22
395.13	15339.41
395.494	15453.25
395.857	15617.97
396.221	15737.67
396.584	16111.35
396.948	16396.4
397.311	16904.7
397.675	17222.5
398.038	17229.17
398.401	16675.77
398.765	16182.02
399.128	15906.95
399.491	15665.41
399.854	15543.7
400.218	15543.95
400.581	15312.31
400.944	15216.32
401.307	14826.03
401.67	14864.14
402.033	14872.36
402.396	14804.61
402.759	14870.86
403.122	14931.62
403.485	15063.06
403.847	15209.6
404.21	15335.43
404.573	15505.44
404.936	15397.83
405.298	15196.67
405.661	14755.28
406.023	14338.09
406.386	14257.21
406.749	14073.89
407.111	14022.91
407.473	14386
407.836	14531.43
408.198	14679.02
408.561	14487.79
408.923	14511.23
409.285	14378.27
409.647	14106.86
410.009	13803.63
410.372	13851.65
410.734	13641.71
411.096	13642.97
411.458	13648.97
411.82	13860.41
412.182	13957.92
412.544	13911.42
412.906	13882.41
413.267	13846.65
413.629	13497.47
413.991	13314.52
414.353	13338.83
414.714	13000.36
415.076	13046.81
415.438	12997.09
415.799	12969.22
416.161	12813.94
416.522	12602.43
416.884	12551.34
417.245	12451.89
417.607	12421.66
417.968	12420.4
418.329	12504.26
418.691	12430.73
419.052	12523.9
419.413	12580.78
419.774	12705.07
420.135	13286.93
420.497	13664.75
420.858	14013.16
421.219	13933.42
421.58	13610.42
421.941	13197.39
422.302	12796.59
422.662	12657.78
423.023	12439.54
423.384	12403.53
423.745	12580.28
424.106	12543.28
424.466	12758.38
424.827	12437.28
425.187	12052.78
425.548	11821.67
425.909	11787.29
426.269	11949.01
426.63	12087.86
426.99	12377.07
427.35	12291.14
427.711	12411.59
428.071	12599.16
428.431	13051.58
428.792	14183.55
429.152	15051.61
429.512	15148.9
429.872	15046.63
430.232	14656.34
430.592	13900.17
430.952	13162.01
431.312	12632.62
431.672	12286.6
432.032	12258.87
432.392	12754.36
432.752	14067.14
433.111	14735.84
433.471	14492.03
433.831	13526.78
434.19	13430.32
434.55	13463.65
434.91	13226.24
435.269	13544.31
435.629	13678.51
435.988	13820.64
436.348	13463.9
436.707	13111.07
437.066	13136.92
437.426	13356.88
437.785	13518.76
438.144	13625.69
438.503	13321.54
438.862	13269.88
439.222	13166.53
439.581	12972.48
439.94	13276.9
440.299	14279.93
440.658	15024.73
441.017	15182.98
441.376	14838.98
441.734	14531.43
442.093	14416.44
442.452	14636.65
442.811	14881.57
443.169	14894.02
443.528	14318.87
443.887	14242.23
444.245	14222.75
444.604	13854.65
444.962	13662.24
445.321	13640.71
445.679	13803.63
446.038	13936.67
446.396	13567.6
446.754	13249.32
447.112	13137.67
447.471	12937.07
447.829	12820.72
448.187	12803.88
448.545	12962.44
448.903	12842.09
449.261	12801.62
449.619	12549.07
449.977	12558.38
450.335	12228.11
450.693	12138.07
451.051	12129.24
451.409	12047.48
451.766	11988.91
452.124	11724.59
452.482	11328.6
452.839	11161.7
453.197	11028.16
453.555	10944.33
453.912	10996.92
454.27	11253.03
454.627	11651.99
454.984	11430.98
455.342	11195.2
455.699	10889.68
456.056	10988.28
456.414	11172.62
456.771	11584.18
457.128	11550.26
457.485	11643.14
457.842	11508.99
458.199	11525.19
458.556	11731.42
458.913	11691.96
459.27	11834.81
459.627	11469.23
459.984	11450.23
460.341	11615.31
460.697	11217.52
461.054	10653.84
461.411	10154.95
461.767	9855.43
462.124	9932.48
462.481	10211.91
462.837	10413.02
463.194	10850.78
463.55	10632.96
463.907	11197.48
464.263	11517.34
464.619	11995.47
464.976	12348.1
465.332	12216.26
465.688	11655.03
466.044	10799.15
466.4	10470.65
466.756	10265.54
467.112	10334.2
467.468	10192.76
467.824	10142.43
468.18	9785
468.536	9739.64
468.892	9430.98
469.248	9343.62
469.604	9256.96
469.959	9202.16
470.315	9283.19
470.671	9225.32
471.026	9461.81
471.382	9509.82
471.737	9777.31
472.093	10007.96
472.448	10403.59
472.804	10598.06
473.159	10769.9
473.514	10745.21
473.87	10955.76
474.225	11494.81
474.58	12148.92
474.935	12033.59
475.29	11813.84
475.645	11708.91
476	11606.7
476.355	11440.86
476.71	11454.54
477.065	12106.03
477.42	12552.09
477.775	12508.29
478.13	12424.43
478.485	12610.23
478.839	12812.68
479.194	13673.01
479.549	14000.66
479.903	14089.88
480.258	13809.38
480.612	14269.69
480.967	14927.39
481.321	15001.08
481.675	14391.74
482.03	13983.67
482.384	13903.42
482.738	14076.63
483.093	14447.88
483.447	14969.96
483.801	15956.82
484.155	16523.24
484.509	20424.28
484.863	45287.06
485.217	57243.45
485.571	56398.6
485.925	35542.13
486.279	25751.14
486.632	21898.48
486.986	18690.72
487.34	16364.44
487.694	15505.44
488.047	15235.47
488.401	15358.3
488.754	15155.12
489.108	14721.39
489.461	14469.83
489.815	14276.18
490.168	14506.99
490.522	14602.75
490.875	14666.81
491.228	14550.14
491.581	14678.77
491.935	14650.36
492.288	14538.17
492.641	14748.55
492.994	14728.12
493.347	15039.16
493.7	15178.76
494.053	15111.33
494.406	14618.45
494.759	14162.57
495.111	14891.78
495.464	16173.09
495.817	16950.97
496.169	16173.83
496.522	14904.48
496.875	13796.37
497.227	13596.4
497.58	13626.19
497.932	13902.17
498.285	14029.41
498.637	14726.87
498.989	15202.14
499.342	15069.78
499.694	14438.65
500.046	13970.17
500.398	14754.28
500.751	15033.69
501.103	15088.19
501.455	15025.72
501.807	14994.11
502.159	15008.55
502.511	15121.53
502.862	15006.31
503.214	14557.87
503.566	13974.67
503.918	13657.49
504.27	13689.02
504.621	13723.31
504.973	13468.16
505.324	13622.44
505.676	14024.91
506.027	13986.92
506.379	13102.29
506.73	12643.44
507.082	12836.81
507.433	13292.2
507.784	13525.02
508.136	13123.87
508.487	12853.4
508.838	12581.04
509.189	12577.26
509.54	12776.23
509.891	12548.07
510.242	12498.97
510.593	12322.64
510.944	12233.91
511.295	11719.28
511.646	11495.82
511.996	11627.96
512.347	11769.35
512.698	11727.12
513.049	11511.52
513.399	11445.67
513.75	11463.15
514.1	10996.92
514.451	10505.06
514.801	10523.16
515.152	10722.82
515.502	11082
515.852	11219.3
516.202	11205.35
516.553	10989.55
516.903	10578.7
517.253	10328.33
517.603	10127.61
517.953	10265.03
518.303	10712.89
518.653	10952.2
519.003	10737.83
519.353	10036.09
519.703	9538.57
520.052	9381.14
520.402	9546.53
520.752	9783.46
521.102	9437.41
521.451	9322.28
521.801	9341.82
522.15	9486.97
522.5	9558.33
522.849	9614.78
523.199	9778.85
523.548	9910.47
523.897	9766.81
524.246	9405.29
524.596	9247.96
524.945	9195.21
525.294	9216.83
525.643	9263.39
525.992	9247.19
526.341	9372.92
526.69	9264.16
527.039	8991.22
527.388	8853.76
527.737	9299.91
528.086	10050.41
528.434	10440.06
528.783	10113.3
529.132	9615.04
529.48	9371.63
529.829	9275.99
530.177	9124.16
530.526	8976.27
530.874	9119.78
531.223	9134.2
531.571	9055.65
531.919	9165.61
532.268	9687.61
532.616	10309.19
532.964	10688.2
533.312	10741.4
533.66	10579.98
534.008	10656.64
534.356	10681.59
534.704	10537.17
535.052	10283.66
535.4	9828.8
535.748	9447.42
536.095	8922.64
536.443	8926.25
536.791	9249.5
537.139	9669.66
537.486	10139.11
537.834	10361.24
538.181	10491.3
538.529	10414.55
538.876	10475.24
539.223	10191.22
539.571	9835.2
539.918	9865.93
540.265	10185.35
540.613	10550.68
540.96	10362.26
541.307	10290.81
541.654	10267.32
542.001	10450.26
542.348	10337.77
542.695	10324.24
543.042	10724.6
543.388	10974.82
543.735	11096.98
544.082	11172.87
544.429	11107.39
544.775	10709.08
545.122	10190.46
545.469	9732.21
545.815	9805.49
546.162	10063.7
546.508	10475.75
546.854	11281.94
547.201	12085.59
547.547	12412.34
547.893	11922.49
548.24	10902.39
548.586	9923.78
548.932	9669.41
549.278	9576.55
549.624	9778.08
549.97	9661.46
550.316	9274.96
550.662	9129.31
551.008	9925.83
551.353	11223.61
551.699	11858.57
552.045	11349.89
552.391	10829.93
552.736	10748.27
553.082	10638.56
553.427	10424.76
553.773	9750.15
554.118	9672.48
554.464	10203.49
554.809	10976.85
555.154	11457.32
555.5	11485.44
555.845	10671.66
556.19	10140.89
556.535	9639.92
556.88	9968.31
557.225	10040.69
557.57	9723.75
557.915	9306.08
558.26	8968.28
558.605	9014.68
558.95	9382.94
559.295	10394.15
559.639	11338.23
559.984	12186.25
560.329	12303.49
560.673	12480.59
561.018	11753.67
561.362	11069.56
561.707	10598.57
562.051	10790.5
562.395	10993.11
562.74	11563.42
563.084	11772.38
563.428	12382.36
563.772	12258.11
564.117	12379.59
564.461	12510.81
564.805	12255.34
565.149	12458.18
565.493	12417.13
565.836	12901.89
566.18	13256.84
566.524	14977.18
566.868	16030.25
567.212	16632.69
567.555	16977.44
567.899	18656.47
568.242	20265.22
568.586	22964.03
568.929	26155.39
569.273	29410.13
569.616	29833.38
569.96	30762.2
570.303	32718.1
570.646	33598.33
570.989	35607.1
571.333	35195.11
571.676	32903.47
572.019	27924.4
572.362	30648.99
572.705	35484.57
573.048	39664.15
573.391	42333.56
573.733	43781.04
574.076	44702.22
574.419	42563.83
574.762	38235.83
575.104	33660.98
575.447	33598.09
575.789	37759.26
576.132	42785.01
576.474	43567.13
576.817	50513
577.159	57233.27
577.501	57352.47
577.844	50266.32
578.186	39656.71
578.528	36045.66
578.87	35649.09
579.212	37651.85
579.554	40531
579.896	40078.81
580.238	44044.3
580.58	58063.04
580.922	65158.2
581.264	68149.91
581.606	59291.98
581.947	52274.95
582.289	42283.68
582.631	34083.08
582.972	29683.1
583.314	30002.37
583.655	31673.91
583.997	37752.58
584.338	43979.33
584.679	48203.88
585.021	46250.65
