Data from FLMS007011_11-49-02-592.txt Node
Date: Thu Apr 21 11:49:02 MDT 2016
User: lab_user
Spectrometer: FLMS00701
Autoset integration time: false
Trigger mode: 0
Integration Time (sec): 5.000000E-3
Scans to average: 10
Electric dark correction enabled: true
Nonlinearity correction enabled: true
Boxcar width: 0
XAxis mode: Wavelengths
Stop averaging: false
Number of Pixels in Spectrum: 2048
>>>>>Begin Spectral Data<<<<<
178.41	21.61
178.791	21.61
179.172	21.61
179.553	-48.39
179.934	-61.83
180.316	-59.54
180.697	-44.68
181.078	-52.11
181.459	-59.83
181.84	-34.96
182.221	-0.38
182.602	-16.1
182.983	7.62
183.364	31.89
183.744	50.17
184.125	68.15
184.506	43.89
184.887	110.95
185.268	139.47
185.648	123.21
186.029	172.53
186.41	178.8
186.791	218.12
187.171	233.5
187.552	247.16
187.932	290.99
188.313	314.6
188.694	314.32
189.074	315.45
189.455	341.33
189.835	374.02
190.216	368.62
190.596	401.29
190.977	383.11
191.357	389.93
191.737	409.25
192.118	404.42
192.498	416.91
192.878	402.71
193.258	444.46
193.639	429.98
194.019	436.22
194.399	437.93
194.779	426
195.159	481.92
195.54	426.57
195.92	456.66
196.3	455.53
196.68	425.72
197.06	472.56
197.44	447.01
197.82	432.25
198.2	447.58
198.58	436.51
198.959	445.03
199.339	436.79
199.719	447.86
200.099	411.8
200.479	417.77
200.858	439.35
201.238	415.49
201.618	413.22
201.998	428.27
202.377	415.21
202.757	404.13
203.136	409.53
203.516	413.22
203.896	403.85
204.275	401.01
204.655	427.99
205.034	427.42
205.414	406.69
205.793	402.71
206.172	403
206.552	411.8
206.931	400.72
207.31	400.72
207.69	409.53
208.069	393.62
208.448	418.33
208.827	414.93
209.207	428.84
209.586	398.45
209.965	401.01
210.344	433.1
210.723	415.49
211.102	406.69
211.481	420.89
211.86	396.75
212.239	394.47
212.618	432.82
212.997	420.89
213.376	404.7
213.755	433.38
214.134	408.68
214.513	434.52
214.891	421.46
215.27	386.52
215.649	414.07
216.028	401.01
216.406	409.81
216.785	410.1
217.164	434.24
217.542	415.78
217.921	420.32
218.3	404.13
218.678	428.56
219.057	406.12
219.435	413.51
219.814	414.93
220.192	410.1
220.57	401.29
220.949	389.08
221.327	455.24
221.705	409.53
222.084	438.5
222.462	399.59
222.84	406.97
223.218	392.49
223.597	457.8
223.975	441.9
224.353	429.98
224.731	429.98
225.109	419.19
225.487	429.13
225.865	426.85
226.243	436.22
226.621	406.12
226.999	425.15
227.377	428.84
227.755	420.61
228.133	431.11
228.511	412.37
228.889	400.16
229.266	398.45
229.644	425.72
230.022	432.53
230.4	445.88
230.777	397.03
231.155	428.56
231.533	467.45
231.91	410.38
232.288	441.62
232.665	441.9
233.043	422.59
233.42	454.96
233.798	416.06
234.175	417.2
234.553	404.99
234.93	443.89
235.307	481.64
235.685	442.47
236.062	439.92
236.439	426.85
236.816	410.1
237.194	428.84
237.571	434.24
237.948	433.1
238.325	413.51
238.702	435.94
239.079	437.08
239.456	435.66
239.833	436.22
240.21	440.48
240.587	423.73
240.964	454.96
241.341	435.94
241.718	433.1
242.095	439.35
242.472	441.62
242.849	448.15
243.225	426
243.602	454.11
243.979	435.66
244.356	447.01
244.732	433.67
245.109	406.12
245.486	456.95
245.862	418.05
246.239	445.03
246.615	450.99
246.992	426
247.368	456.66
247.745	458.93
248.121	420.61
248.497	427.14
248.874	420.89
249.25	426.57
249.626	431.11
250.003	428.56
250.379	435.37
250.755	461.21
251.131	442.19
251.507	429.69
251.884	441.9
252.26	424.87
252.636	438.5
253.012	446.44
253.388	445.31
253.764	437.08
254.14	459.22
254.516	452.41
254.892	484.76
255.268	437.36
255.643	467.17
256.019	446.44
256.395	441.62
256.771	468.58
257.147	440.2
257.522	449
257.898	439.63
258.274	472.27
258.649	467.17
259.025	433.95
259.4	411.8
259.776	446.44
260.151	431.68
260.527	439.92
260.902	422.31
261.278	454.39
261.653	439.06
262.028	427.99
262.404	453.54
262.779	443.32
263.154	464.04
263.53	455.24
263.905	449.28
264.28	463.19
264.655	457.52
265.03	427.42
265.405	452.69
265.781	440.2
266.156	444.17
266.531	448.43
266.906	450.42
267.281	449.28
267.655	471.71
268.03	469.44
268.405	442.47
268.78	424.58
269.155	460.35
269.53	464.61
269.904	456.38
270.279	442.47
270.654	472.84
271.029	448.43
271.403	459.22
271.778	464.61
272.152	447.3
272.527	445.59
272.901	460.64
273.276	451.27
273.65	454.11
274.025	455.81
274.399	456.95
274.774	468.87
275.148	464.04
275.522	477.1
275.897	455.53
276.271	430.83
276.645	427.71
277.019	493.55
277.393	466.88
277.768	464.04
278.142	447.01
278.516	493.84
278.89	444.46
279.264	461.21
279.638	473.41
280.012	459.22
280.386	462.91
280.76	453.26
281.133	452.69
281.507	460.64
281.881	463.48
282.255	467.73
282.629	470.85
283.002	435.09
283.376	453.54
283.75	454.11
284.123	456.38
284.497	467.17
284.87	437.36
285.244	461.77
285.618	430.83
285.991	475.96
286.364	462.91
286.738	474.54
287.111	462.62
287.485	481.64
287.858	476.53
288.231	448.72
288.605	458.37
288.978	453.54
289.351	476.25
289.724	462.34
290.097	453.83
290.47	480.22
290.843	469.15
291.217	447.01
291.59	487.31
291.963	467.73
292.336	436.51
292.708	460.64
293.081	465.46
293.454	466.03
293.827	447.58
294.2	461.77
294.573	448.15
294.945	506.04
295.318	445.03
295.691	463.48
296.064	462.06
296.436	477.38
296.809	466.88
297.181	481.35
297.554	470
297.926	483.91
298.299	455.81
298.671	461.77
299.044	433.38
299.416	468.58
299.788	434.8
300.161	438.21
300.533	461.49
300.905	457.23
301.278	489.58
301.65	478.8
302.022	474.26
302.394	477.95
302.766	473.98
303.138	464.61
303.51	451.84
303.882	476.53
304.254	455.24
304.626	431.68
304.998	502.06
305.37	453.26
305.742	471.99
306.114	459.5
306.485	457.23
306.857	445.03
307.229	470.29
307.601	451.27
307.972	461.49
308.344	472.84
308.716	464.33
309.087	464.89
309.459	480.79
309.83	451.27
310.202	470.29
310.573	471.71
310.945	465.46
311.316	461.77
311.687	469.72
312.059	466.03
312.43	467.73
312.801	471.71
313.172	478.23
313.544	481.92
313.915	456.66
314.286	455.53
314.657	475.96
315.028	460.92
315.399	466.88
315.77	463.19
316.141	458.37
316.512	456.95
316.883	456.1
317.254	473.69
317.625	464.61
317.996	469.15
318.366	478.52
318.737	458.93
319.108	455.53
319.478	470.85
319.849	454.11
320.22	455.53
320.59	483.06
320.961	471.14
321.331	473.41
321.702	464.04
322.072	491.57
322.443	450.42
322.813	468.87
323.184	472.27
323.554	484.47
323.924	487.03
324.295	481.35
324.665	481.92
325.035	440.48
325.405	491.28
325.775	462.62
326.145	487.88
326.515	483.62
326.886	464.04
327.256	431.11
327.626	467.17
327.995	437.64
328.365	452.69
328.735	483.62
329.105	476.53
329.475	462.06
329.845	466.03
330.215	465.75
330.584	470.57
330.954	484.19
331.324	474.26
331.693	464.04
332.063	478.23
332.432	466.88
332.802	466.03
333.171	457.8
333.541	491
333.91	465.18
334.28	472.27
334.649	480.79
335.018	487.6
335.388	475.39
335.757	460.07
336.126	475.68
336.495	460.07
336.865	486.18
337.234	490.43
337.603	485.33
337.972	479.37
338.341	465.18
338.71	465.75
339.079	473.12
339.448	475.96
339.817	461.49
340.186	481.35
340.554	464.61
340.923	479.65
341.292	467.45
341.661	493.27
342.029	493.27
342.398	469.44
342.767	469.72
343.135	470.57
343.504	467.73
343.872	481.35
344.241	474.83
344.609	477.1
344.978	481.64
345.346	482.77
345.715	475.68
346.083	454.96
346.451	490.43
346.82	463.19
347.188	448.15
347.556	489.01
347.924	477.95
348.292	466.03
348.66	465.18
349.028	452.69
349.396	457.52
349.764	454.68
350.132	505.47
350.5	466.6
350.868	494.4
351.236	482.2
351.604	487.31
351.972	476.81
352.34	466.6
352.707	469.44
353.075	473.98
353.443	468.58
353.81	466.03
354.178	496.96
354.545	477.38
354.913	485.04
355.28	486.74
355.648	475.68
356.015	469.72
356.383	472.27
356.75	497.53
357.117	479.08
357.485	472.56
357.852	474.54
358.219	464.61
358.586	454.96
358.954	485.61
359.321	480.5
359.688	479.65
360.055	457.8
360.422	438.21
360.789	483.62
361.156	486.18
361.523	480.22
361.89	473.12
362.256	476.25
362.623	474.54
362.99	475.68
363.357	489.01
363.724	465.75
364.09	471.99
364.457	451.84
364.823	468.3
365.19	498.38
365.557	456.38
365.923	458.08
366.29	443.89
366.656	496.96
367.022	479.65
367.389	473.12
367.755	472.27
368.121	476.53
368.488	486.46
368.854	485.04
369.22	453.83
369.586	474.26
369.952	488.73
370.318	479.65
370.684	471.99
371.051	480.79
371.416	485.33
371.782	460.35
372.148	450.7
372.514	472.84
372.88	468.3
373.246	480.22
373.612	468.58
373.977	450.42
374.343	487.31
374.709	503.48
375.074	474.26
375.44	487.6
375.806	469.44
376.171	470
376.537	488.16
376.902	480.79
377.268	474.83
377.633	473.98
377.998	460.92
378.364	470
378.729	481.64
379.094	472.56
379.459	469.15
379.825	454.68
380.19	476.53
380.555	462.34
380.92	493.55
381.285	456.66
381.65	472.84
382.015	466.6
382.38	458.08
382.745	439.35
383.11	478.8
383.474	476.81
383.839	481.07
384.204	503.48
384.569	460.64
384.933	461.21
385.298	498.38
385.663	459.5
386.027	479.37
386.392	475.11
386.756	484.19
387.121	463.19
387.485	461.49
387.849	467.73
388.214	468.58
388.578	479.37
388.942	487.6
389.307	479.37
389.671	473.41
390.035	483.06
390.399	471.71
390.763	478.23
391.127	466.6
391.492	461.77
391.856	470
392.219	471.14
392.583	473.41
392.947	453.83
393.311	483.34
393.675	469.15
394.039	461.21
394.403	447.58
394.766	475.11
395.13	449.57
395.494	481.64
395.857	487.31
396.221	471.14
396.584	505.75
396.948	473.69
397.311	453.83
397.675	485.33
398.038	489.01
398.401	471.14
398.765	460.35
399.128	475.96
399.491	471.14
399.854	483.06
400.218	485.61
400.581	481.35
400.944	505.75
401.307	484.19
401.67	483.06
402.033	476.53
402.396	457.23
402.759	472.27
403.122	459.22
403.485	470.29
403.847	462.06
404.21	497.53
404.573	461.49
404.936	460.07
405.298	478.52
405.661	461.21
406.023	485.04
406.386	468.87
406.749	489.58
407.111	486.74
407.473	464.61
407.836	483.91
408.198	441.33
408.561	487.88
408.923	471.42
409.285	459.22
409.647	465.18
410.009	493.84
410.372	454.11
410.734	475.39
411.096	489.3
411.458	492.99
411.82	489.01
412.182	477.95
412.544	468.3
412.906	476.25
413.267	476.81
413.629	467.17
413.991	426
414.353	487.88
414.714	456.66
415.076	466.88
415.438	465.46
415.799	483.34
416.161	470.29
416.522	483.34
416.884	453.83
417.245	508.59
417.607	448.15
417.968	451.84
418.329	471.99
418.691	469.72
419.052	490.72
419.413	466.03
419.774	485.61
420.135	467.45
420.497	481.35
420.858	479.65
421.219	483.34
421.58	478.8
421.941	454.68
422.302	460.92
422.662	483.62
423.023	477.1
423.384	462.62
423.745	470.85
424.106	450.99
424.466	479.65
424.827	472.56
425.187	483.62
425.548	482.77
425.909	472.84
426.269	488.73
426.63	478.8
426.99	463.19
427.35	491.57
427.711	486.74
428.071	462.34
428.431	460.64
428.792	470.57
429.152	471.42
429.512	459.22
429.872	478.23
430.232	463.76
430.592	455.81
430.952	483.62
431.312	487.88
431.672	446.73
432.032	461.77
432.392	447.01
432.752	453.26
433.111	463.76
433.471	493.84
433.831	477.95
434.19	468.02
434.55	463.48
434.91	487.31
435.269	488.45
435.629	481.64
435.988	466.03
436.348	473.41
436.707	479.08
437.066	488.45
437.426	458.08
437.785	462.62
438.144	449
438.503	483.91
438.862	438.78
439.222	466.6
439.581	485.04
439.94	484.19
440.299	458.37
440.658	458.65
441.017	462.06
441.376	445.59
441.734	499.51
442.093	447.3
442.452	491
442.811	477.38
443.169	473.69
443.528	449.85
443.887	478.52
444.245	478.52
444.604	460.92
444.962	477.95
445.321	464.04
445.679	469.15
446.038	463.19
446.396	489.3
446.754	470.85
447.112	451.55
447.471	488.45
447.829	460.64
448.187	452.41
448.545	469.44
448.903	470.85
449.261	473.41
449.619	475.96
449.977	457.8
450.335	474.83
450.693	455.53
451.051	460.92
451.409	462.62
451.766	469.72
452.124	491
452.482	470
452.839	442.47
453.197	473.41
453.555	463.19
453.912	453.83
454.27	478.52
454.627	479.37
454.984	491
455.342	471.71
455.699	444.17
456.056	475.68
456.414	483.06
456.771	468.02
457.128	449.28
457.485	431.97
457.842	468.02
458.199	475.11
458.556	483.91
458.913	460.92
459.27	491.57
459.627	453.83
459.984	453.83
460.341	457.23
460.697	474.83
461.054	462.91
461.411	450.99
461.767	482.77
462.124	482.2
462.481	473.98
462.837	463.19
463.194	496.96
463.55	482.2
463.907	465.75
464.263	470.85
464.619	464.04
464.976	454.68
465.332	446.44
465.688	473.69
466.044	475.11
466.4	461.49
466.756	454.68
467.112	485.04
467.468	483.91
467.824	457.52
468.18	496.11
468.536	480.5
468.892	470.29
469.248	450.99
469.604	457.8
469.959	492.99
470.315	480.79
470.671	456.95
471.026	471.42
471.382	485.33
471.737	483.62
472.093	495.26
472.448	455.53
472.804	476.81
473.159	453.83
473.514	496.96
473.87	473.69
474.225	456.38
474.58	470
474.935	484.19
475.29	456.95
475.645	485.61
476	483.06
476.355	478.8
476.71	468.87
477.065	463.19
477.42	453.83
477.775	458.93
478.13	458.65
478.485	484.76
478.839	474.26
479.194	480.5
479.549	496.39
479.903	456.1
480.258	456.95
480.612	452.69
480.967	474.26
481.321	506.04
481.675	488.73
482.03	458.08
482.384	455.24
482.738	448.43
483.093	474.83
483.447	454.11
483.801	474.26
484.155	469.44
484.509	481.35
484.863	471.42
485.217	487.88
485.571	492.14
485.925	445.88
486.279	480.79
486.632	470.85
486.986	463.76
487.34	459.79
487.694	450.99
488.047	453.54
488.401	466.31
488.754	486.74
489.108	445.03
489.461	468.87
489.815	452.97
490.168	476.25
490.522	471.42
490.875	481.35
491.228	468.58
491.581	473.41
491.935	484.76
492.288	476.53
492.641	491.28
492.994	464.33
493.347	481.07
493.7	495.26
494.053	455.24
494.406	476.25
494.759	456.95
495.111	466.31
495.464	476.53
495.817	444.74
496.169	452.97
496.522	499.79
496.875	473.12
497.227	484.19
497.58	481.92
497.932	473.12
498.285	482.49
498.637	467.45
498.989	502.92
499.342	445.59
499.694	468.02
500.046	481.64
500.398	485.33
500.751	490.72
501.103	466.31
501.455	459.5
501.807	447.01
502.159	470.57
502.511	465.46
502.862	463.19
503.214	472.27
503.566	464.33
503.918	456.95
504.27	458.37
504.621	466.88
504.973	450.42
505.324	471.71
505.676	493.55
506.027	474.83
506.379	463.76
506.73	450.14
507.082	468.02
507.433	479.94
507.784	496.11
508.136	480.5
508.487	494.12
508.838	465.75
509.189	472.27
509.54	478.8
509.891	457.52
510.242	472.84
510.593	502.92
510.944	495.26
511.295	456.66
511.646	469.72
511.996	483.62
512.347	460.35
512.698	451.84
513.049	471.14
513.399	493.55
513.75	453.83
514.1	471.42
514.451	471.14
514.801	462.34
515.152	476.25
515.502	489.58
515.852	451.55
516.202	478.8
516.553	456.38
516.903	457.52
517.253	460.64
517.603	458.65
517.953	454.39
518.303	456.95
518.653	472.27
519.003	478.52
519.353	445.59
519.703	467.17
520.052	459.79
520.402	487.6
520.752	470.85
521.102	492.7
521.451	468.3
521.801	471.14
522.15	456.38
522.5	487.31
522.849	464.33
523.199	478.52
523.548	488.45
523.897	481.92
524.246	451.27
524.596	488.73
524.945	483.91
525.294	482.77
525.643	466.6
525.992	467.73
526.341	461.21
526.69	481.92
527.039	470.85
527.388	426
527.737	491.85
528.086	471.99
528.434	457.52
528.783	468.58
529.132	450.42
529.48	461.49
529.829	458.93
530.177	456.38
530.526	477.1
530.874	462.91
531.223	463.48
531.571	477.1
531.919	456.1
532.268	488.16
532.616	463.19
532.964	488.16
533.312	473.69
533.66	463.19
534.008	463.48
534.356	458.93
534.704	478.52
535.052	453.26
535.4	451.27
535.748	457.8
536.095	483.06
536.443	481.64
536.791	458.93
537.139	469.72
537.486	473.69
537.834	462.06
538.181	482.49
538.529	450.99
538.876	476.81
539.223	480.5
539.571	482.2
539.918	483.06
540.265	452.97
540.613	477.95
540.96	456.95
541.307	495.26
541.654	466.6
542.001	476.53
542.348	498.66
542.695	496.39
543.042	469.44
543.388	471.71
543.735	473.41
544.082	488.16
544.429	464.61
544.775	470
545.122	468.02
545.469	483.06
545.815	463.19
546.162	458.37
546.508	462.91
546.854	469.44
547.201	457.23
547.547	470.85
547.893	451.84
548.24	447.3
548.586	472.56
548.932	499.51
549.278	493.55
549.624	464.89
549.97	442.47
550.316	453.54
550.662	474.54
551.008	462.06
551.353	461.49
551.699	466.31
552.045	480.79
552.391	467.45
552.736	476.81
553.082	455.24
553.427	462.34
553.773	431.11
554.118	441.05
554.464	445.31
554.809	462.91
555.154	461.21
555.5	469.72
555.845	448.43
556.19	466.88
556.535	482.77
556.88	484.19
557.225	470.57
557.57	463.76
557.915	504.05
558.26	461.21
558.605	479.08
558.95	469.15
559.295	454.11
559.639	471.99
559.984	482.49
560.329	446.16
560.673	493.55
561.018	470.85
561.362	472.84
561.707	445.31
562.051	466.88
562.395	471.42
562.74	485.33
563.084	481.07
563.428	481.35
563.772	499.79
564.117	487.31
564.461	449.28
564.805	467.17
565.149	463.19
565.493	478.23
565.836	479.08
566.18	462.34
566.524	475.68
566.868	461.49
567.212	456.95
567.555	464.33
567.899	464.04
568.242	466.31
568.586	460.35
568.929	474.83
569.273	438.5
569.616	468.02
569.96	475.11
570.303	462.06
570.646	429.98
570.989	490.43
571.333	460.92
571.676	474.83
572.019	466.6
572.362	466.03
572.705	457.52
573.048	469.72
573.391	460.07
573.733	460.35
574.076	456.95
574.419	461.21
574.762	450.14
575.104	462.91
575.447	458.65
575.789	469.44
576.132	489.01
576.474	477.66
576.817	466.31
577.159	458.08
577.501	468.3
577.844	476.81
578.186	475.96
578.528	469.72
578.87	450.99
579.212	496.39
579.554	502.06
579.896	474.26
580.238	501.78
580.58	480.22
580.922	477.38
581.264	490.72
581.606	465.46
581.947	482.77
582.289	451.55
582.631	459.22
582.972	429.13
583.314	458.37
583.655	482.77
583.997	433.1
584.338	474.54
584.679	457.52
585.021	474.54
585.362	471.71
585.703	451.84
586.044	493.84
586.385	455.81
586.726	505.47
587.067	473.69
587.408	489.58
587.749	481.92
588.09	468.87
588.431	462.06
588.772	490.43
589.113	483.34
589.453	470.57
589.794	453.83
590.134	476.53
590.475	466.03
590.815	495.82
591.156	446.16
591.496	496.39
591.837	488.16
592.177	474.54
592.517	465.75
592.857	485.61
593.198	466.88
593.538	482.2
593.878	456.66
594.218	497.81
594.558	494.4
594.898	466.6
595.237	501.78
595.577	447.86
595.917	471.71
596.257	467.45
596.596	473.98
596.936	486.74
597.276	471.14
597.615	461.21
597.955	466.31
598.294	465.75
598.633	483.06
598.973	467.73
599.312	499.51
599.651	471.42
599.991	470.29
600.33	487.6
600.669	451.27
601.008	469.72
601.347	470.29
601.686	460.92
602.025	457.52
602.364	485.33
602.702	478.8
603.041	463.48
603.38	475.96
603.719	460.35
604.057	458.93
604.396	473.98
604.734	467.17
605.073	477.38
605.411	478.23
605.75	452.41
606.088	454.68
606.426	471.71
606.764	492.14
607.103	462.62
607.441	470.57
607.779	439.63
608.117	475.68
608.455	470.85
608.793	471.71
609.131	436.79
609.469	461.49
609.806	479.65
610.144	475.11
610.482	471.14
610.819	468.3
611.157	458.65
611.495	468.02
611.832	464.89
612.17	451.55
612.507	488.16
612.844	481.35
613.182	483.34
613.519	463.48
613.856	472.27
614.193	462.91
614.53	458.37
614.867	479.94
615.205	472.27
615.541	445.31
615.878	473.41
616.215	460.35
616.552	450.14
616.889	454.11
617.226	454.39
617.562	473.98
617.899	449.28
618.235	457.23
618.572	473.12
618.908	481.92
619.245	486.18
619.581	466.03
619.918	469.44
620.254	456.1
620.59	481.07
620.926	480.79
621.262	424.87
621.599	457.8
621.935	458.93
622.271	462.62
622.606	472.27
622.942	499.23
623.278	418.9
623.614	473.69
623.95	491.57
624.285	447.01
624.621	465.46
624.957	466.88
625.292	477.38
625.628	466.88
625.963	443.89
626.299	474.54
