Data from FLMS007011_12-16-05-943.txt Node
Date: Thu Apr 21 12:16:05 MDT 2016
User: lab_user
Spectrometer: FLMS00701
Autoset integration time: false
Trigger mode: 0
Integration Time (sec): 5.000000E-3
Scans to average: 10
Electric dark correction enabled: true
Nonlinearity correction enabled: true
Boxcar width: 0
XAxis mode: Wavelengths
Stop averaging: false
Number of Pixels in Spectrum: 2048
>>>>>Begin Spectral Data<<<<<
178.41	25.85
178.791	25.85
179.172	25.85
179.553	-18.72
179.934	-45.3
180.316	-47.01
180.697	-81.61
181.078	-55.02
181.459	-63.88
181.84	-44.15
182.221	-37.01
182.602	-10.14
182.983	-9.86
183.364	9.57
183.744	42.41
184.125	69.53
184.506	97.21
184.887	116.04
185.268	148.26
185.648	169.64
186.029	181.04
186.41	218.64
186.791	256.22
187.171	277.85
187.552	352.09
187.932	378.52
188.313	390.17
188.694	434.19
189.074	466.55
189.455	475.06
189.835	495.21
190.216	513.36
190.596	525.27
190.977	526.69
191.357	545.97
191.737	533.78
192.118	536.33
192.498	548.24
192.878	557.03
193.258	555.04
193.639	576.58
194.019	571.48
194.399	593.01
194.779	606.89
195.159	613.41
195.54	608.88
195.92	606.33
196.3	610.58
196.68	636.35
197.06	626.72
197.44	634.93
197.82	636.35
198.2	615.96
198.58	624.45
198.959	657.86
199.339	649.37
199.719	656.16
200.099	668.33
200.479	658.14
200.858	645.12
201.238	659.28
201.618	687.01
201.998	665.5
202.377	699.17
202.757	690.4
203.136	691.82
203.516	723.78
203.896	706.81
204.275	715.29
204.655	733.96
205.034	713.88
205.414	743
205.793	736.22
206.172	744.14
206.552	735.65
206.931	812.8
207.31	795
207.69	801.22
208.069	823.81
208.448	838.21
208.827	874.34
209.207	883.37
209.586	898.89
209.965	890.43
210.344	905.09
210.723	897.48
211.102	914.68
211.481	890.71
211.86	930.19
212.239	965.99
212.618	979.8
212.997	982.9
213.376	981.49
213.755	995.3
214.134	1014.45
214.513	1041.2
214.891	1060.63
215.27	1114.93
215.649	1129.27
216.028	1157.95
216.406	1209.37
216.785	1226.78
217.164	1263.84
217.542	1290.78
217.921	1322.2
218.3	1349.12
218.678	1367.06
219.057	1391.16
219.435	1455.29
219.814	1447.17
220.192	1480.48
220.57	1515.74
220.949	1535.31
221.327	1638.99
221.705	1661.32
222.084	1709.33
222.462	1756.46
222.84	1829.47
223.218	1881.82
223.597	1988.35
223.975	2045.59
224.353	2147.45
224.731	2231.72
225.109	2303.45
225.487	2432.88
225.865	2551.89
226.243	2632.41
226.621	2754.14
226.999	2853.69
227.377	2992.64
227.755	3058.19
228.133	3214.56
228.511	3296.87
228.889	3421.14
229.266	3466.15
229.644	3653.58
230.022	3768.88
230.4	3846.56
230.777	3923.09
231.155	4041.26
231.533	4153.86
231.91	4338.68
232.288	4437.94
232.665	4561.6
233.043	4779.65
233.42	4902.29
233.798	5063.85
234.175	5330.87
234.553	5522.56
234.93	5743.36
235.307	5983.52
235.685	6147.71
236.062	6387.39
236.439	6545.89
236.816	6834.04
237.194	7121.63
237.571	7266.7
237.948	7474.02
238.325	7656.42
238.702	7868.2
239.079	8043.99
239.456	8150.99
239.833	8303.01
240.21	8594.05
240.587	8658.16
240.964	8727.16
241.341	8872.51
241.718	9018.2
242.095	9015.62
242.472	9155.74
242.849	9279.77
243.225	9361.78
243.602	9544.65
243.979	9683.42
244.356	9764.16
244.732	9972.57
245.109	10161.51
245.486	10314.46
245.862	10495.8
246.239	10775.41
246.615	10925.18
246.992	11219.98
247.368	11448.88
247.745	11626.36
248.121	11975.44
248.497	12139.5
248.874	12439.96
249.25	12690.9
249.626	12865.13
250.003	13106.47
250.379	13373.09
250.755	13579.79
251.131	13768.27
251.507	13820.55
251.884	14037.07
252.26	14062.81
252.636	14217.68
253.012	14383.42
253.388	14479.22
253.764	14490.7
254.14	14461.01
254.516	14473.74
254.892	14464.26
255.268	14536.59
255.643	14466.5
256.019	14563.77
256.395	14452.53
256.771	14669.72
257.147	14631.58
257.522	14742.74
257.898	14817.73
258.274	14738.25
258.649	14932.04
259.025	15027.13
259.4	15065.46
259.776	15219.71
260.151	15426.33
260.527	15373.14
260.902	15679.48
261.278	15692.89
261.653	15899.67
262.028	15945.32
262.404	16154.91
262.779	16457.51
263.154	16655.14
263.53	16832.62
263.905	16821.23
264.28	16910.31
264.655	17136.38
265.03	17033.5
265.405	17359.1
265.781	17433.73
266.156	17506.86
266.531	17578.99
266.906	17478.69
267.281	17668.14
267.655	17507.85
268.03	17441.14
268.405	17376.65
268.78	17385.54
269.155	17392.21
269.53	17236.75
269.904	17183.6
270.279	17130.94
270.654	16999.62
271.029	16909.07
271.403	16849.69
271.778	16804.16
272.152	16660.84
272.527	16600.92
272.901	16770.5
273.276	16735.84
273.65	16704.41
274.025	16531.08
274.399	16441.41
274.774	16567.98
275.148	16690.3
275.522	16666.28
275.897	16672.47
276.271	16729.9
276.645	16850.68
277.019	17019.65
277.393	17060.46
277.768	17084.2
278.142	17235.27
278.516	17299.04
278.89	17498.7
279.264	17580.47
279.638	17776.79
280.012	17829.87
280.386	17832.09
280.76	18000.91
281.133	18225.17
281.507	18263.89
281.881	18393.36
282.255	18451.79
282.629	18381.28
283.002	18356.62
283.376	18471.52
283.75	18444.15
284.123	18579.24
284.497	18439.22
284.87	18501.1
285.244	18540.54
285.618	18470.28
285.991	18228.13
286.364	18308.53
286.738	18189.9
287.111	18219.99
287.485	18077.4
287.858	17998.69
288.231	17811.85
288.605	17812.83
288.978	17749.38
289.351	17501.42
289.724	17299.29
290.097	17335.13
290.47	17196.21
290.843	17169.26
291.217	17026.08
291.59	16742.78
291.963	16837.56
292.336	16612.8
292.708	16605.87
293.081	16506.81
293.454	16602.9
293.827	16468.41
294.2	16319.5
294.573	16311.57
294.945	16249.61
295.318	16277.37
295.691	16336.36
296.064	16320.99
296.436	16357.42
296.809	16379.22
297.181	16294.97
297.554	16354.2
297.926	16457.27
298.299	16488.48
298.671	16664.8
299.044	16728.91
299.416	16689.31
299.788	16837.56
300.161	16876.17
300.533	17000.6
300.905	17118.08
301.278	17120.3
301.65	17240.46
302.022	17220.44
302.394	17145.03
302.766	17313.13
303.138	17237.25
303.51	17397.65
303.882	17402.1
304.254	17460.41
304.626	17569.35
304.998	17634.06
305.37	17322.77
305.742	17482.4
306.114	17500.68
306.485	17397.9
306.857	17489.07
307.229	17361.82
307.601	17290.64
307.972	17249.36
308.344	17177.92
308.716	16982.79
309.087	17064.42
309.459	16919.22
309.83	16961.03
310.202	16865.53
310.573	16853.65
310.945	16820.98
311.316	16526.87
311.687	16583.33
312.059	16431.25
312.43	16408.71
312.801	16348.25
313.172	16161.85
313.544	16160.86
313.915	16142.76
314.286	16108.54
314.657	15992.46
315.028	15973.85
315.399	15875.35
315.77	15994.45
316.141	15768.62
316.512	15819.75
316.883	15743.54
317.254	15732.87
317.625	15648.44
317.996	15702.58
318.366	15656.39
318.737	15766.38
319.108	15724.92
319.478	15673.27
319.849	15788.97
320.22	15875.84
320.59	15812.06
320.961	15836.88
321.331	15911.83
321.702	15777.56
322.072	15860.21
322.443	15904.88
322.813	15998.66
323.184	16018.01
323.554	16012.31
323.924	16010.82
324.295	16055.22
324.665	15942.84
325.035	16063.65
325.405	15949.79
325.775	16086.22
326.145	15898.43
326.515	15881.8
326.886	15887.51
327.256	15827.7
327.626	15704.56
327.995	15487.21
328.365	15236.38
328.735	14990.79
329.105	14664.98
329.475	14808.51
329.845	14915.6
330.215	15511.32
330.584	16083.24
330.954	16739.06
331.324	17219.2
331.693	17472.52
332.063	17472.02
332.432	17297.81
332.802	16927.38
333.171	16553.86
333.541	15969.39
333.91	15801.88
334.28	15680.23
334.649	15591.81
335.018	15462.36
335.388	15435.03
335.757	15328.39
336.126	15136.88
336.495	15214.99
336.865	15014.69
337.234	14878.5
337.603	14915.11
337.972	14800.29
338.341	14751.21
338.71	14673.96
339.079	14609.39
339.448	14636.82
339.817	14492.94
340.186	14417.36
340.554	14377.93
340.923	14235.4
341.292	14218.68
341.661	14186.96
342.029	14108.28
342.398	14020.08
342.767	13937.09
343.135	13972.59
343.504	13866.57
343.872	13970.84
344.241	13958.09
344.609	13803.54
344.978	13795.54
345.346	13932.84
345.715	13783.03
346.083	13712.47
346.451	13828.56
346.82	13711.72
347.188	13723.73
347.556	13702.46
347.924	13756.76
348.292	13722.23
348.66	13763.26
349.028	13752.76
349.396	13725.73
349.764	13891.58
350.132	13756.51
350.5	13821.05
350.868	13820.3
351.236	13787.53
351.604	13786.28
351.972	13892.08
352.34	13774.27
352.707	13876.83
353.075	13921.59
353.443	13902.58
353.81	13811.3
354.178	13937.34
354.545	13976.09
354.913	13928.59
355.28	13848.07
355.648	13981.34
356.015	13979.34
356.383	13977.34
356.75	13946.09
357.117	13885.83
357.485	13942.84
357.852	13888.58
358.219	13891.58
358.586	13988.08
358.954	13875.58
359.321	13834.81
359.688	13827.06
360.055	13779.03
360.422	13797.54
360.789	13749.25
361.156	13715.72
361.523	13569.77
361.89	13635.62
362.256	13702.96
362.623	13518.93
362.99	13520.18
363.357	13507.66
363.724	13430.99
364.09	13342.76
364.457	13343.77
364.823	13357.8
365.19	13204.58
365.557	13219.63
365.923	13182
366.29	13158.67
366.656	13132.07
367.022	13191.04
367.389	12997.51
367.755	12860.6
368.121	12775.64
368.488	12715.04
368.854	12663.73
369.22	12561.57
369.586	12318.53
369.952	12266.1
370.318	12150.85
370.684	12091.31
371.051	12066.07
371.416	11924.93
371.782	11880.72
372.148	11846.61
372.514	11777.86
372.88	11642.3
373.246	11665.82
373.612	11654.19
373.977	11731.59
374.343	11689.1
374.709	11867.07
375.074	11648.87
375.44	11536
375.806	11457.75
376.171	11445.33
376.537	11327.24
376.902	11368.56
377.268	11546.38
377.633	11559.03
377.998	11582.32
378.364	11818.3
378.729	11713.88
379.094	11765.97
379.459	11515.99
379.825	11400.24
380.19	11399.98
380.555	11240.52
380.92	11093.59
381.285	11089.53
381.65	11162.63
382.015	11182.93
382.38	11136.49
382.745	11082.68
383.11	11050.94
383.474	11100.7
383.839	11102.99
384.204	11116.19
384.569	11079.63
384.933	11143.6
385.298	11042.81
385.663	11028.08
386.027	11108.06
386.392	11202.22
386.756	11315.07
387.121	11435.71
387.485	11641.03
387.849	11717.42
388.214	11593.2
388.578	11449.64
388.942	11359.44
389.307	11289.72
389.671	11377.18
390.035	11433.17
390.399	11493.71
390.763	11658.74
391.127	11750.05
391.492	12094.84
391.856	12387.07
392.219	12607.88
392.583	12607.88
392.947	12268.11
393.311	11859.49
393.675	11796.82
394.039	11669.62
394.403	11748.53
394.766	11609.65
395.13	11537.51
395.494	11482.82
395.857	11616.74
396.221	11709.08
396.584	11843.07
396.948	12071.87
397.311	12444.5
397.675	12634.8
398.038	12679.33
398.401	12449.28
398.765	11993.11
399.128	11761.17
399.491	11398.72
399.854	11268.17
400.218	11326.99
400.581	11231.9
400.944	11139.54
401.307	10937.89
401.67	10887.56
402.033	10811.78
402.396	10807.97
402.759	10682.52
403.122	10764.98
403.485	10855.53
403.847	10860.1
404.21	11011.06
404.573	11109.59
404.936	11159.08
405.298	11072.01
405.661	10647.38
406.023	10361.16
406.386	10204.42
406.749	10117.81
407.111	10020.92
407.473	10196.76
407.836	10311.14
408.198	10437.68
408.561	10386.41
408.923	10288.17
409.285	10194.2
409.647	10092.25
410.009	9909.62
410.372	9838.19
410.734	9759.04
411.096	9695.47
411.458	9633.16
411.82	9747.25
412.182	9860.98
412.544	9805.66
412.906	9875.06
413.267	9802.59
413.629	9650.35
413.991	9543.11
414.353	9463.26
414.714	9255.85
415.076	9174.02
415.438	9270.25
415.799	9276.68
416.161	9129.74
416.522	9021.81
416.884	8948.86
417.245	9006.09
417.607	8919.97
417.968	8838.19
418.329	8989.08
418.691	8908.62
419.052	8943.18
419.413	8959.69
419.774	9144.16
420.135	9424.99
420.497	9718.8
420.858	9998.92
421.219	10145.92
421.58	9930.61
421.941	9676.76
422.302	9310.11
422.662	9254.82
423.023	9173.51
423.384	9095.49
423.745	9157.8
424.106	9245.56
424.466	9287.48
424.827	9185.09
425.187	8953.5
425.548	8685.3
425.909	8603.61
426.269	8700.55
426.63	8794.04
426.99	8999.64
427.35	8995.78
427.711	9029.8
428.071	9187.4
428.431	9420.62
428.792	10120.62
429.152	10829.08
429.512	11057.54
429.872	10937.38
430.232	10726.04
430.592	10324.67
430.952	9703.93
431.312	9307.8
431.672	8839.22
432.032	8958.14
432.392	9099.87
432.752	9806.18
433.111	10491.98
433.471	10608.68
433.831	9989.97
434.19	9705.21
434.55	9676.24
434.91	9468.65
435.269	9683.68
435.629	9747.25
435.988	9873.01
436.348	9743.4
436.707	9468.91
437.066	9330.93
437.426	9484.06
437.785	9579.29
438.144	9670.09
438.503	9539.77
438.862	9504.86
439.222	9386.71
439.581	9248.39
439.94	9354.33
440.299	9941.36
440.658	10496.31
441.017	10767.52
441.376	10761.92
441.734	10424.67
442.093	10274.64
442.452	10289.7
442.811	10521.54
443.169	10572.51
443.528	10319.82
443.887	10142.6
444.245	10097.11
444.604	9902.71
444.962	9716.75
445.321	9712.65
445.679	9729.82
446.038	9934.45
446.396	9772.1
446.754	9470.19
447.112	9402.38
447.471	9245.56
447.829	9171.45
448.187	9191.27
448.545	9229.61
448.903	9120.21
449.261	9170.42
449.619	8947.05
449.977	8939.57
450.335	8792.24
450.693	8685.56
451.051	8573.87
451.409	8546.45
451.766	8606.72
452.124	8400.19
452.482	8180.58
452.839	8007.6
453.197	7891.1
453.555	7867.94
453.912	7850.5
454.27	7940.01
454.627	8224.69
454.984	8241.03
455.342	8035.41
455.699	7867.16
456.056	7778.9
456.414	7959.25
456.771	8067.11
457.128	8282.53
457.485	8271.12
457.842	8279.93
458.199	8262.3
458.556	8372.73
458.913	8359.51
459.27	8462.86
459.627	8229.62
459.984	8245.18
460.341	8296.27
460.697	8092.57
461.054	7779.42
461.411	7353.02
461.767	7162.24
462.124	7006.53
462.481	7210.16
462.837	7372.89
463.194	7699.18
463.55	7598.79
463.907	7915.04
464.263	8150.73
464.619	8503.24
464.976	8716.57
465.332	8879.47
465.688	8569.73
466.044	7938.97
466.4	7564.34
466.756	7361.91
467.112	7348.58
467.468	7349.62
467.824	7299.15
468.18	7051.9
468.536	6930.95
468.892	6792.77
469.248	6707.3
469.604	6592
469.959	6626.76
470.315	6608.06
470.671	6637.29
471.026	6625.71
471.382	6704.67
471.737	6846.65
472.093	7049.54
472.448	7256.76
472.804	7408.18
473.159	7585.74
473.514	7614.7
473.87	7686.41
474.225	8060.36
474.58	8425.57
474.935	8525.24
475.29	8394.75
475.645	8194.59
476	8110.23
476.355	8100.1
476.71	8001.11
477.065	8262.56
477.42	8595.86
477.775	8696.67
478.13	8670.31
478.485	8727.42
478.839	8768.22
479.194	9207.73
479.549	9533.35
479.903	9743.4
480.258	9521.03
480.612	9689.58
480.967	10038.05
481.321	10170.96
481.675	9977.18
482.03	9629.06
482.384	9358.18
482.738	9473.28
483.093	9644.45
483.447	10032.68
483.801	10571.74
484.155	11054.24
484.509	12317.77
484.863	25164.28
485.217	35893.11
485.571	39992.84
485.925	29146.23
486.279	19448.93
486.632	14850.85
486.986	12709.76
487.34	11367.8
487.694	10564.1
488.047	10199.31
488.401	10314.72
488.754	10212.59
489.108	9963.36
489.461	9756.73
489.815	9702.39
490.168	9733.41
490.522	9895.29
490.875	9896.82
491.228	9922.67
491.581	9965.15
491.935	9969.25
492.288	9820.01
492.641	9992.01
492.994	9958.5
493.347	10261.62
493.7	10295.06
494.053	10239.92
494.406	10118.07
494.759	9578.26
495.111	9890.93
495.464	10768.03
495.817	11419.75
496.169	11289.47
496.522	10475.16
496.875	9621.36
497.227	9256.87
497.58	9154.46
497.932	9433.21
498.285	9579.8
498.637	9993.29
498.989	10323.9
499.342	10385.14
499.694	10095.06
500.046	9698.29
500.398	10006.59
500.751	10431.81
501.103	10442.27
501.455	10490.96
501.807	10451.44
502.159	10420.08
502.511	10496.31
502.862	10371.87
503.214	10171.73
503.566	9849.2
503.918	9480.47
504.27	9476.87
504.621	9495.87
504.973	9459.15
505.324	9501.01
505.676	9701.88
506.027	9789.01
506.379	9366.66
506.73	8882.05
507.082	8897.27
507.433	9154.97
507.784	9543.62
508.136	9226.52
508.487	9108.88
508.838	8802.31
509.189	8798.43
509.54	8953.24
509.891	8899.6
510.242	8836.64
510.593	8731.03
510.944	8587.06
511.295	8377.91
511.646	8200.56
511.996	8119.57
512.347	8267.23
512.698	8378.95
513.049	8328.93
513.399	8180.84
513.75	8136.97
514.1	8000.59
514.451	7697.35
514.801	7533.29
515.152	7667.37
515.502	7876.79
515.852	8009.68
516.202	8074.9
516.553	8008.12
516.903	7651.21
517.253	7408.18
517.603	7259.9
517.953	7358.51
518.303	7641.3
518.653	7828.12
519.003	7872.37
519.353	7402.17
519.703	6981.34
520.052	6830.88
520.402	6841.66
520.752	7066.59
521.102	6960.61
521.451	6835.09
521.801	6762.01
522.15	6879.75
522.5	7060.3
522.849	6996.56
523.199	7135.26
523.548	7201.79
523.897	7144.95
524.246	6973.21
524.596	6709.93
524.945	6662.56
525.294	6701.51
525.643	6710.46
525.992	6758.86
526.341	6805.13
526.69	6719.14
527.039	6570.66
527.388	6395.57
527.737	6671.51
528.086	7144.16
528.434	7635.04
528.783	7461.48
529.132	7058.72
529.48	6771.21
529.829	6710.72
530.177	6624.39
530.526	6479.2
530.874	6571.19
531.223	6551.16
531.571	6521.12
531.919	6547.47
532.268	6760.17
532.616	7245.77
532.964	7674.41
533.312	7676.5
533.66	7590.96
534.008	7578.96
534.356	7572.43
534.704	7520.23
535.052	7325.83
535.4	6992.63
535.748	6628.87
536.095	6297.08
536.443	6158.55
536.791	6306.86
537.139	6643.09
537.486	6985.02
537.834	7113.77
538.181	7233.2
538.529	7187.38
538.876	7135.52
539.223	6999.97
539.571	6741.76
539.918	6645.45
540.265	6825.1
540.613	7117.18
540.96	7058.98
541.307	6884.48
541.654	6903.65
542.001	6886.05
542.348	6887.63
542.695	6908.11
543.042	7074.72
543.388	7196.81
543.735	7311.44
544.082	7238.18
544.429	7247.34
544.775	6998.66
545.122	6681.51
545.469	6366.8
545.815	6325.35
546.162	6412.99
546.508	6664.67
546.854	7120.85
547.201	7657.21
547.547	8057.5
547.893	7740.09
548.24	7174.29
548.586	6448.34
548.932	6109.6
549.278	5998.89
549.624	6167.02
549.97	6137.12
550.316	5907.43
550.662	5773.12
551.008	6078.09
551.353	6928.59
551.699	7438.49
552.045	7358.78
552.391	6905.75
552.736	6714.14
553.082	6602.8
553.427	6627.02
553.773	6198.76
554.118	6028.04
554.464	6242.91
554.809	6747.55
555.154	7171.41
555.5	7250.74
555.845	6826.94
556.19	6374.46
556.535	6065.65
556.88	6203.78
557.225	6344.1
557.57	6196.38
557.915	5889.39
558.26	5708.02
558.605	5679.04
558.95	5861
559.295	6444.39
559.639	7077.86
559.984	7642.34
560.329	7879.39
560.673	7857.53
561.018	7515.8
561.362	7043.78
561.707	6724.4
562.051	6794.88
562.395	6899.18
562.74	7303.33
563.084	7513.18
563.428	7906.19
563.772	7925.18
564.117	7900.47
564.461	8006.56
564.805	7804.42
565.149	7902.55
565.493	7957.43
565.836	8109.71
566.18	8426.09
566.524	9405.72
566.868	10337.17
567.212	10792.2
567.555	10916.28
567.899	11780.89
568.242	12909.6
568.586	14578.73
568.929	16604.38
569.273	18990.97
569.616	19456.56
569.96	19776.7
570.303	20980.84
570.646	21676.19
570.989	22811.05
571.333	23070.94
571.676	21745.43
572.019	18463.38
572.362	19167.54
572.705	22485.85
573.048	25942.75
573.391	27703.48
573.733	28730.3
574.076	29496.61
574.419	28487.24
574.762	25316.67
575.104	22335.14
575.447	21380.26
575.789	24152.58
576.132	28241.01
576.474	28810.43
576.817	33147.71
577.159	38158.24
577.501	39898.04
577.844	34839.72
578.186	26897.95
578.528	23373.76
578.87	23302.84
579.212	24566.28
579.554	27354.46
579.896	27045.77
580.238	28930.63
580.58	38555.5
580.922	45633.32
581.264	49335.36
581.606	42245.95
581.947	36223.52
582.289	28855.66
582.631	22859.4
582.972	19525.23
583.314	19840.91
583.655	21095.57
583.997	25285.26
584.338	30172.53
584.679	33594.31
585.021	33128.23
585.362	28000.72
585.703	23884.88
586.044	22132.86
586.385	25084.77
586.726	28380.09
587.067	27760.71
587.408	24189.14
587.749	21898.65
588.09	19984.56
588.431	18087.02
588.772	16213.42
589.113	16619.49
589.453	17160.86
589.794	16468.41
590.134	14738.25
590.475	13809.55
590.815	13837.56
591.156	14199.7
591.496	14295.82
